time (s)	coil I (A)	last det (V)	int current (uC)
1451.932632	1.105503	0.499637	484.210297
1451.933762	1.567002	0.499637	2254.922363
1451.934649	1.545282	0.499637	3625.587402
1451.935514	1.506240	0.499637	4928.485352
1451.936586	1.458735	0.499637	6492.249512
1451.937549	1.418375	0.499637	7858.145020
1451.938470	1.381465	0.499637	9130.474609
1451.939338	0.865605	0.499637	9881.820312
1451.940399	0.096552	0.499637	9984.261719
1451.941305	0.089872	0.499637	10065.685547
1451.942185	0.089967	0.499637	10144.856445
1451.943185	0.089919	0.499637	10234.775391
1451.944161	0.089890	0.499637	10322.507812
1451.945088	0.089974	0.499637	10405.914062
1451.945970	0.089938	0.499637	10485.239258
1451.946968	0.089967	0.499637	10575.026367
1451.947886	0.089956	0.499637	10657.606445
1451.948811	0.089993	0.499637	10740.849609
1452.990815	1.080513	0.502453	481.908630
1452.991689	1.559509	0.502453	1844.919678
1452.992561	1.555378	0.502453	3201.209717
1452.993585	1.511276	0.502453	4748.755859
1452.994500	1.468546	0.502453	6092.475586
1452.995431	1.429761	0.502453	7423.583008
1452.996298	1.392839	0.502453	8631.174805
1452.997343	1.059412	0.502453	9738.259766
1452.998240	0.131378	0.502453	9856.106445
1452.999119	0.089810	0.502453	9935.048828
1453.000124	0.089886	0.502453	10025.384766
1453.001046	0.089861	0.502453	10108.236328
1453.001967	0.089886	0.502453	10191.021484
1453.002830	0.089886	0.502453	10268.593750
1453.003871	0.089744	0.502453	10362.016602
1453.004749	0.089941	0.502453	10440.985352
1453.005621	0.089846	0.502453	10519.331055
1453.006581	0.089945	0.502453	10605.678711
1453.991104	1.049656	0.545774	449.252686
1453.991971	1.557521	0.545774	1799.623169
1453.992997	1.550830	0.545774	3390.774902
1453.993984	1.507031	0.545774	4878.214844
1453.994902	1.465788	0.545774	6223.808594
1453.995770	1.427256	0.545774	7462.666992
1453.996888	1.384761	0.545774	9010.829102
1453.997780	0.930168	0.545774	9840.539062
1453.998637	0.114478	0.545774	9938.646484
1453.999699	0.089949	0.545774	10034.171875
1454.000653	0.089832	0.545774	10119.871094
1454.001528	0.089941	0.545774	10198.570312
1454.002391	0.089960	0.545774	10276.205078
1454.003493	0.089941	0.545774	10375.320312
1454.004408	0.089960	0.545774	10457.633789
1454.005275	0.089886	0.545774	10535.565430
1454.006334	0.090062	0.545774	10630.941406
1454.007305	0.089960	0.545774	10718.291992
1454.998198	1.048337	0.546197	440.301727
1454.999229	1.563190	0.546197	2051.950195
1455.000258	1.544158	0.546197	3640.888672
1455.001157	1.503615	0.546197	4992.638184
1455.002103	1.461493	0.546197	6375.210449
1455.003171	1.416592	0.546197	7888.130859
1455.004122	1.378616	0.546197	9199.194336
1455.004992	0.761268	0.546197	9861.498047
1455.006052	0.093658	0.546197	9960.776367
1455.007049	0.089967	0.546197	10050.473633
1455.007933	0.090026	0.546197	10130.056641
1455.008798	0.089982	0.546197	10207.890625
1455.009870	0.089967	0.546197	10304.334961
1455.010793	0.089952	0.546197	10387.361328
1455.011663	0.089912	0.546197	10465.584961
1455.012623	0.089930	0.546197	10551.917969
1455.013633	0.089971	0.546197	10642.788086
1455.014532	0.089971	0.546197	10723.671875
1456.037320	1.066179	0.437561	465.920288
1456.038189	1.558824	0.437561	1820.538696
1456.039259	1.548739	0.437561	3477.689453
1456.040252	1.504391	0.437561	4971.549805
1456.041141	1.464324	0.437561	6273.333496
1456.042006	1.427032	0.437561	7507.716797
1456.043087	1.384523	0.437561	9004.385742
1456.044020	0.876511	0.437561	9822.170898
1456.044888	0.107607	0.437561	9915.574219
1456.045864	0.089978	0.437561	10003.392578
1456.046902	0.089949	0.437561	10096.759766
1456.047783	0.089952	0.437561	10176.007812
1456.048650	0.089996	0.437561	10254.034180
1456.049693	0.089934	0.437561	10347.834961
1456.050627	0.089949	0.437561	10431.846680
1456.051509	0.089989	0.437561	10511.216797
1456.052451	0.090029	0.437561	10596.024414
1456.053478	0.090022	0.437561	10688.476562
1457.020514	1.080655	0.508186	487.375610
1457.021376	1.559000	0.508186	1831.233887
1457.022420	1.548501	0.508186	3447.868652
1457.023447	1.503025	0.508186	4991.475098
1457.024342	1.462925	0.508186	6300.792969
1457.025310	1.422784	0.508186	7678.048340
1457.026374	1.379722	0.508186	9146.072266
1457.027296	0.736036	0.508186	9824.698242
1457.028167	0.097961	0.508186	9910.022461
1457.029238	0.090066	0.508186	10006.483398
1457.030233	0.089996	0.508186	10096.029297
1457.031130	0.089971	0.508186	10176.733398
1457.032104	0.090092	0.508186	10264.482422
1457.033150	0.090033	0.508186	10358.657227
1457.034062	0.090000	0.508186	10440.737305
1457.034926	0.089941	0.508186	10518.446289
1457.036018	0.089971	0.508186	10616.694336
1457.036992	0.089960	0.508186	10704.315430
1458.072717	1.131277	0.503170	571.294800
1458.073672	1.566317	0.503170	2067.127441
1458.074541	1.549995	0.503170	3414.073242
1458.075572	1.503937	0.503170	4964.631836
1458.076619	1.457490	0.503170	6490.624023
1458.077517	1.420016	0.503170	7765.798340
1458.078476	1.381729	0.503170	9090.875977
1458.079536	0.631388	0.503170	9760.147461
1458.080470	0.092644	0.503170	9846.676758
1458.081333	0.089952	0.503170	9924.305664
1458.082403	0.089989	0.503170	10020.593750
1458.083403	0.089905	0.503170	10110.498047
1458.084301	0.089919	0.503170	10191.246094
1458.085261	0.089985	0.503170	10277.631836
1458.086298	0.090040	0.503170	10371.003906
1458.087214	0.089996	0.503170	10453.440430
1458.088077	0.090037	0.503170	10531.141602
1458.089152	0.090051	0.503170	10627.946289
1459.048042	1.087097	0.532887	478.322754
1459.048996	1.563439	0.532887	1969.843384
1459.049924	1.550167	0.532887	3408.398437
1459.050790	1.511144	0.532887	4717.048828
1459.051763	1.468041	0.532887	6145.452148
1459.052726	1.427853	0.532887	7520.474609
1459.053624	1.390935	0.532887	8769.534180
1459.054572	1.015199	0.532887	9731.942383
1459.055650	0.110431	0.532887	9850.987305
1459.056647	0.089967	0.532887	9940.684570
1459.057526	0.089919	0.532887	10019.723633
1459.058490	0.090026	0.532887	10106.508789
1459.059549	0.089952	0.532887	10201.768555
1459.060459	0.090011	0.532887	10283.678711
1459.061327	0.089971	0.532887	10361.773437
1459.062386	0.090062	0.532887	10457.149414
1459.063382	0.089996	0.532887	10546.786133
1459.064276	0.089974	0.532887	10627.223633
1460.104832	1.095520	0.532243	541.186890
1460.105915	1.566365	0.532243	2237.560059
1460.106857	1.542301	0.532243	3690.407715
1460.107722	1.502952	0.532243	4990.460937
1460.108753	1.456959	0.532243	6492.585937
1460.109776	1.414461	0.532243	7939.579102
1460.110669	1.378616	0.532243	9170.682617
1460.111643	0.684060	0.532243	9836.957031
1460.112702	0.091527	0.532243	9933.883789
1460.113635	0.090000	0.532243	10017.853516
1460.114506	0.089949	0.532243	10096.199219
1460.115581	0.090026	0.532243	10192.976562
1460.116569	0.089952	0.532243	10281.849609
1460.117463	0.089967	0.532243	10362.280273
1460.118438	0.090029	0.532243	10450.058594
1460.119493	0.089982	0.532243	10544.989258
1460.120414	0.089945	0.532243	10627.829102
1460.121277	0.089938	0.532243	10705.445312
1461.079637	1.067355	0.598057	471.770782
1461.080501	1.558220	0.598057	1818.072998
1461.081546	1.548475	0.598057	3436.229736
1461.082610	1.501725	0.598057	5034.064941
1461.083518	1.460482	0.598057	6360.182617
1461.084396	1.423110	0.598057	7609.673340
1461.085446	1.381333	0.598057	9060.073242
1461.086462	0.680555	0.598057	9751.517578
1461.087356	0.095153	0.598057	9836.583984
1461.088338	0.089993	0.598057	9924.957031
1461.089381	0.090135	0.598057	10018.968750
1461.090298	0.090040	0.598057	10101.536133
1461.091160	0.090004	0.598057	10179.119141
1461.092234	0.090044	0.598057	10275.826172
1461.093230	0.089941	0.598057	10365.408203
1461.094127	0.090026	0.598057	10446.161133
1461.095119	0.090081	0.598057	10535.521484
1461.096159	0.089901	0.598057	10629.018555
1462.137165	1.074609	0.509024	464.231201
1462.138120	1.558945	0.509024	1953.023926
1462.139172	1.545352	0.509024	3578.733887
1462.140092	1.504237	0.509024	4962.631836
1462.140955	1.464353	0.509024	6226.368652
1462.142052	1.419434	0.509024	7783.487305
1462.143052	1.378993	0.509024	9162.480469
1462.143936	0.783472	0.509024	9855.069336
1462.144936	0.099335	0.509024	9954.404297
1462.145984	0.089850	0.509024	10048.567383
1462.146879	0.089996	0.509024	10129.114258
1462.147737	0.089938	0.509024	10206.281250
1462.148810	0.090092	0.509024	10302.949219
1462.149804	0.089989	0.509024	10392.398437
1462.150698	0.090022	0.509024	10472.877930
1462.151681	0.090011	0.509024	10561.358398
1462.152731	0.089989	0.509024	10655.846680
1462.153628	0.089974	0.509024	10736.553711
1463.110789	1.096897	0.617985	530.898132
1463.111687	1.561945	0.617985	1933.524414
1463.112568	1.552387	0.617985	3301.176758
1463.113489	1.512686	0.617985	4694.360352
1463.114406	1.469191	0.617985	6041.608398
1463.115349	1.429915	0.617985	7390.017578
1463.116244	1.393682	0.617985	8637.362305
1463.117165	1.164272	0.617985	9709.657227
1463.118130	0.155186	0.617985	9859.411133
1463.119055	0.089795	0.617985	9942.471680
1463.119930	0.090011	0.617985	10021.231445
1463.120885	0.089949	0.617985	10107.132812
1463.121833	0.089912	0.617985	10192.369141
1463.122757	0.090040	0.617985	10275.566406
1463.123620	0.089963	0.617985	10353.205078
1463.124587	0.089901	0.617985	10440.139648
1463.125509	0.089971	0.617985	10523.092773
1463.126405	0.090048	0.617985	10603.775391
1464.164574	1.116442	0.519836	511.330261
1464.165505	1.563746	0.519836	1967.177979
1464.166389	1.552163	0.519836	3339.290039
1464.167308	1.511364	0.519836	4728.233398
1464.168272	1.468066	0.519836	6143.449219
1464.169207	1.428842	0.519836	7479.416016
1464.170075	1.392993	0.519836	8688.534180
1464.171040	1.127684	0.519836	9776.750000
1464.171998	0.144829	0.519836	9915.496094
1464.172888	0.089861	0.519836	9995.472656
1464.173819	0.089982	0.519836	10079.246094
1464.174725	0.089941	0.519836	10160.733398
1464.175673	0.090033	0.519836	10246.084961
1464.176568	0.089934	0.519836	10326.576172
1464.177480	0.089916	0.519836	10408.579102
1464.178443	0.089872	0.519836	10495.125977
1464.179358	0.089897	0.519836	10577.381836
1464.180228	0.089960	0.519836	10655.646484
1465.144687	1.082318	0.653926	504.360260
1465.145576	1.560538	0.653926	1891.678833
1465.146489	1.551914	0.653926	3308.576416
1465.147436	1.509104	0.653926	4737.697754
1465.148387	1.466697	0.653926	6132.526367
1465.149284	1.429274	0.653926	7414.584961
1465.150203	1.391576	0.653926	8693.443359
1465.151160	1.093920	0.653926	9740.324219
1465.152094	0.133572	0.653926	9865.080078
1465.152959	0.089791	0.653926	9942.750000
1465.153943	0.089861	0.653926	10031.172852
1465.154892	0.089908	0.653926	10116.496094
1465.155784	0.089916	0.653926	10196.701172
1465.156680	0.089963	0.653926	10277.308594
1465.157607	0.089916	0.653926	10360.660156
1465.158539	0.089967	0.653926	10444.509766
1465.159420	0.089919	0.653926	10523.728516
1465.160396	0.089864	0.653926	10611.436523
1466.191555	1.057430	0.494352	456.809937
1466.192423	1.558019	0.494352	1809.170288
1466.193371	1.553068	0.494352	3281.478516
1466.194324	1.510759	0.494352	4721.231934
1466.195253	1.469183	0.494352	6086.103516
1466.196121	1.431497	0.494352	7328.642578
1466.197093	1.392572	0.494352	8682.222656
1466.198044	1.132833	0.494352	9759.546875
1466.198935	0.155468	0.494352	9898.068359
1466.199869	0.089864	0.494352	9982.001953
1466.200794	0.089923	0.494352	10065.180664
1466.201732	0.089901	0.494352	10149.507812
1466.202606	0.089938	0.494352	10228.113281
1466.203557	0.089769	0.494352	10313.483398
1466.204514	0.089916	0.494352	10399.533203
1466.205446	0.089945	0.494352	10483.362305
1466.206308	0.089886	0.494352	10560.844727
1466.207281	0.089835	0.494352	10648.253906
1467.184329	1.073214	0.584780	467.921387
1467.185201	1.557953	0.584780	1826.456299
1467.186183	1.551057	0.584780	3349.594238
1467.187110	1.510389	0.584780	4749.725098
1467.187998	1.470088	0.584780	6055.163086
1467.188945	1.431332	0.584780	7410.634277
1467.189882	1.391715	0.584780	8714.670898
1467.190822	1.110626	0.584780	9758.659180
1467.191711	0.151483	0.584780	9893.328125
1467.192639	0.089762	0.584780	9976.626953
1467.193577	0.089854	0.584780	10060.909180
1467.194503	0.089967	0.584780	10144.218750
1467.195379	0.089773	0.584780	10222.859375
1467.196338	0.090022	0.584780	10309.190430
1467.197288	0.089993	0.584780	10394.683594
1467.198185	0.089952	0.584780	10475.371094
1467.199080	0.089996	0.584780	10555.917969
1467.200017	0.089978	0.584780	10640.227539
1468.207061	1.078480	0.522116	475.609802
1468.207942	1.559520	0.522116	1849.547119
1468.208895	1.552833	0.522116	3329.397217
1468.209837	1.510990	0.522116	4752.750000
1468.210764	1.469062	0.522116	6114.570801
1468.211628	1.431566	0.522116	7351.443848
1468.212559	1.392418	0.522116	8647.785156
1468.213528	1.108491	0.522116	9721.913086
1468.214464	0.142603	0.522116	9855.388672
1468.215338	0.089824	0.522116	9933.895508
1468.216314	0.089868	0.522116	10021.606445
1468.217271	0.089912	0.522116	10107.652344
1468.218168	0.089923	0.522116	10188.313477
1468.219046	0.089934	0.522116	10267.275391
1468.219993	0.089824	0.522116	10352.338867
1468.220941	0.089927	0.522116	10437.589844
1468.221820	0.089927	0.522116	10516.635742
1468.222732	0.089956	0.522116	10598.675781
1469.226841	1.072679	0.511078	477.342346
1469.227719	1.559509	0.511078	1846.591553
1469.228644	1.552873	0.511078	3282.999512
1469.229578	1.511107	0.511078	4694.373535
1469.230501	1.469780	0.511078	6050.980957
1469.231391	1.432145	0.511078	7325.589844
1469.232310	1.394623	0.511078	8607.248047
1469.233276	1.164522	0.511078	9732.175781
1469.234211	0.153252	0.511078	9875.466797
1469.235076	0.089799	0.511078	9953.142578
1469.236055	0.089934	0.511078	10041.188477
1469.236979	0.090011	0.511078	10124.358398
1469.237904	0.089923	0.511078	10207.537109
1469.238767	0.089927	0.511078	10285.143555
1469.239713	0.089916	0.511078	10370.204102
1469.240656	0.089890	0.511078	10454.970703
1469.241545	0.089912	0.511078	10534.902344
1469.242457	0.089850	0.511078	10616.845703
1470.217951	1.077008	0.558922	497.577698
1470.218977	1.566398	0.558922	2104.701660
1470.219870	1.547604	0.558922	3486.711914
1470.220750	1.508500	0.558922	4814.191406
1470.221757	1.464543	0.558922	6288.986816
1470.222679	1.424301	0.558922	7602.191895
1470.223602	1.387317	0.558922	8882.685547
1470.224464	1.031162	0.558922	9771.546875
1470.225506	0.108827	0.558922	9884.944336
1470.226394	0.089828	0.558922	9964.711914
1470.227310	0.089978	0.558922	10047.131836
1470.228184	0.089908	0.558922	10125.711914
1470.229181	0.089938	0.558922	10215.379883
1470.230103	0.089934	0.558922	10298.298828
1470.230976	0.089930	0.558922	10376.807617
1470.232027	0.089927	0.558922	10471.320312
1470.232923	0.089886	0.558922	10551.858398
1470.233842	0.090007	0.558922	10634.575195
1471.273408	1.058829	0.532968	454.237823
1471.274289	1.558451	0.532968	1827.233032
1471.275253	1.552734	0.532968	3324.068848
1471.276180	1.511565	0.532968	4725.289551
1471.277107	1.469484	0.532968	6087.500977
1471.277981	1.432031	0.532968	7339.096191
1471.278953	1.392074	0.532968	8692.192383
1471.279907	1.098640	0.532968	9740.294922
1471.280826	0.141434	0.532968	9870.273437
1471.281706	0.089908	0.532968	9949.392578
1471.282674	0.089927	0.532968	10036.441406
1471.283619	0.089916	0.532968	10121.412109
1471.284511	0.089897	0.532968	10201.600586
1471.285422	0.089956	0.532968	10283.550781
1471.286360	0.089832	0.532968	10367.812500
1471.287285	0.089930	0.532968	10450.998047
1471.288168	0.089938	0.532968	10530.413086
1471.289098	0.089908	0.532968	10614.028320
1472.231917	1.103870	0.572047	523.234253
1472.232801	1.561124	0.572047	1903.268066
1472.233768	1.550178	0.572047	3402.290527
1472.234813	1.503541	0.572047	4973.491211
1472.235745	1.461815	0.572047	6335.902832
1472.236611	1.424308	0.572047	7569.353516
1472.237694	1.381652	0.572047	9065.682617
1472.238693	0.748246	0.572047	9813.180664
1472.239573	0.098203	0.572047	9899.599609
1472.240555	0.089996	0.572047	9987.975586
1472.241588	0.090026	0.572047	10080.971680
1472.242476	0.089894	0.572047	10160.797852
1472.243354	0.089967	0.572047	10239.789062
1472.244326	0.089982	0.572047	10327.250977
1472.245334	0.089890	0.572047	10417.860352
1472.246226	0.089982	0.572047	10498.124023
1472.247092	0.089938	0.572047	10576.009766
1472.248163	0.089982	0.572047	10672.379883
1473.314833	1.131855	0.496516	567.059570
1473.315734	1.564189	0.496516	1976.394287
1473.316669	1.549043	0.496516	3424.749512
1473.317539	1.508855	0.496516	4737.453125
1473.318597	1.462745	0.496516	6285.037598
1473.319486	1.425297	0.496516	7552.126465
1473.320374	1.389309	0.496516	8785.833008
1473.321377	0.970034	0.496516	9758.777344
1473.322307	0.113295	0.496516	9864.141602
1473.323228	0.089828	0.496516	9946.873047
1473.324094	0.089861	0.496516	10024.692383
1473.325126	0.089843	0.496516	10117.410156
1473.326006	0.089854	0.496516	10196.481445
1473.326871	0.089897	0.496516	10274.243164
1473.327793	0.089908	0.496516	10357.138672
1473.328774	0.089978	0.496516	10445.407227
1473.329698	0.089923	0.496516	10528.496094
1473.330578	0.089960	0.496516	10607.660156
1474.262088	1.059705	0.594758	459.911774
1474.262952	1.557012	0.594758	1805.169922
1474.264012	1.547878	0.594758	3445.920898
1474.265035	1.502490	0.594758	4982.968750
1474.265932	1.462299	0.594758	6294.650391
1474.266899	1.422264	0.594758	7669.979980
1474.267962	1.379194	0.594758	9136.063477
1474.268898	0.727625	0.594758	9817.120117
1474.269761	0.097749	0.594758	9901.477539
1474.270826	0.089974	0.594758	9997.299805
1474.271809	0.089901	0.594758	10085.672852
1474.272698	0.089890	0.594758	10165.584961
1474.273689	0.089813	0.594758	10254.589844
1474.274722	0.089934	0.594758	10347.492187
1474.275631	0.089857	0.594758	10429.171875
1474.276493	0.089916	0.594758	10506.679687
1474.277563	0.089916	0.594758	10602.889648
1474.278555	0.089956	0.594758	10692.125977
1475.332169	1.071962	0.506433	469.519196
1475.333034	1.557598	0.506433	1816.841064
1475.334130	1.546703	0.506433	3512.027344
1475.335116	1.502278	0.506433	4993.273437
1475.336011	1.462544	0.506433	6302.250000
1475.337005	1.421045	0.506433	7714.768555
1475.338060	1.378923	0.506433	9169.532227
1475.338963	0.746191	0.506433	9843.342773
1475.339822	0.098756	0.506433	9928.173828
1475.340931	0.089963	0.506433	10027.943359
1475.341892	0.089850	0.506433	10114.289062
1475.342758	0.090048	0.506433	10192.270508
1475.343636	0.089912	0.506433	10271.212891
1475.344739	0.089963	0.506433	10370.442383
1475.345644	0.089938	0.506433	10451.835937
1475.346515	0.089835	0.506433	10530.082031
1475.347564	0.089941	0.506433	10624.430664
1475.348529	0.089963	0.506433	10711.245117
1476.315460	1.058785	0.567732	454.218903
1476.316377	1.560308	0.567732	1885.020996
1476.317348	1.549358	0.567732	3389.447510
1476.318275	1.508771	0.567732	4788.078125
1476.319158	1.467909	0.567732	6084.241699
1476.320235	1.423506	0.567732	7617.357422
1476.321284	1.381461	0.567732	9066.509766
1476.322194	0.842567	0.567732	9833.246094
1476.323064	0.104209	0.567732	9923.908203
1476.324176	0.089982	0.567732	10023.967773
1476.325141	0.089861	0.567732	10110.683594
1476.326005	0.089952	0.567732	10188.402344
1476.327055	0.090059	0.567732	10282.963867
1476.328071	0.089905	0.567732	10374.306641
1476.328961	0.089989	0.567732	10454.396484
1476.329868	0.089949	0.567732	10535.980469
1476.330928	0.089854	0.567732	10631.225586
1476.331870	0.089788	0.567732	10715.805664
1477.339121	1.132980	0.550463	542.697327
1477.340080	1.564299	0.550463	2042.860352
1477.341011	1.547725	0.550463	3483.791992
1477.341880	1.508353	0.550463	4794.550781
1477.342861	1.465250	0.550463	6231.961426
1477.343824	1.424901	0.550463	7604.141113
1477.344734	1.387764	0.550463	8867.005859
1477.345669	1.021282	0.550463	9821.904297
1477.346594	0.118934	0.550463	9931.918945
1477.347511	0.089802	0.550463	10014.267578
1477.348407	0.089934	0.550463	10094.848633
1477.349322	0.089938	0.550463	10177.141602
1477.350278	0.089916	0.550463	10263.101562
1477.351177	0.089960	0.550463	10343.975586
1477.352089	0.089945	0.550463	10426.005859
1477.353039	0.089919	0.550463	10511.429687
1477.353968	0.090011	0.550463	10595.049805
1477.354843	0.089945	0.550463	10673.751953
1478.364098	1.064202	0.492898	459.735138
1478.364964	1.557495	0.492898	1808.525879
1478.365951	1.551046	0.492898	3339.408447
1478.366907	1.509243	0.492898	4782.245117
1478.367805	1.468521	0.492898	6100.976562
1478.368737	1.429651	0.492898	7433.411133
1478.369682	1.391290	0.492898	8748.180664
1478.370614	1.108594	0.492898	9781.389648
1478.371481	0.150524	0.492898	9911.893555
1478.372452	0.089824	0.492898	9999.113281
1478.373409	0.089967	0.492898	10085.211914
1478.374338	0.089952	0.492898	10168.777344
1478.375198	0.089897	0.492898	10246.088867
1478.376166	0.089985	0.492898	10333.194336
1478.377114	0.089993	0.492898	10418.507812
1478.378009	0.089949	0.492898	10499.011719
1478.378928	0.089886	0.492898	10581.617187
1478.379857	0.089864	0.492898	10665.101562
1479.353025	1.069384	0.601369	460.904297
1479.353909	1.558004	0.601369	1838.179932
1479.354831	1.552130	0.601369	3269.243896
1479.355805	1.510107	0.601369	4740.088379
1479.356739	1.467964	0.601369	6111.166992
1479.357607	1.430592	0.601369	7352.920898
1479.358585	1.391865	0.601369	8714.165039
1479.359528	1.122081	0.601369	9772.288086
1479.360425	0.150923	0.601369	9907.666016
1479.361337	0.089854	0.601369	9989.612305
1479.362271	0.089901	0.601369	10073.580078
1479.363195	0.089930	0.601369	10156.675781
1479.364090	0.090004	0.601369	10237.229492
1479.365004	0.089905	0.601369	10319.402344
1479.365965	0.089934	0.601369	10405.829102
1479.366892	0.089886	0.601369	10489.154297
1479.367754	0.089832	0.601369	10566.588867
1479.368724	0.089974	0.601369	10653.864258
1480.402144	1.084255	0.465260	497.673248
1480.403074	1.562996	0.465260	1951.259033
1480.403959	1.551511	0.465260	3324.346436
1480.404873	1.512015	0.465260	4706.328613
1480.405834	1.468832	0.465260	6117.875977
1480.406761	1.429332	0.465260	7442.867187
1480.407633	1.393282	0.465260	8657.809570
1480.408562	1.139960	0.465260	9716.832031
1480.409511	0.152534	0.465260	9861.586914
1480.410443	0.089799	0.465260	9945.279297
1480.411322	0.089806	0.465260	10024.218750
1480.412292	0.089941	0.465260	10111.461914
1480.413238	0.089916	0.465260	10196.522461
1480.414131	0.089967	0.465260	10276.863281
1480.415011	0.089872	0.465260	10355.950195
1480.415968	0.089956	0.465260	10442.038086
1480.416904	0.089927	0.465260	10526.209961
1480.417767	0.090073	0.465260	10603.943359
1481.386933	1.051923	0.578862	442.859406
1481.387906	1.562765	0.578862	1963.429565
1481.388828	1.549299	0.578862	3391.883545
1481.389756	1.508899	0.578862	4792.141602
1481.390623	1.468740	0.578862	6065.539551
1481.391609	1.428234	0.578862	7473.777832
1481.392566	1.389452	0.578862	8803.483398
1481.393464	1.106884	0.578862	9797.464844
1481.394381	0.149374	0.578862	9934.440430
1481.395310	0.089802	0.578862	10017.867187
1481.396236	0.089971	0.578862	10101.179687
1481.397100	0.089773	0.578862	10178.743164
1481.398116	0.089993	0.578862	10270.175781
1481.399032	0.089938	0.578862	10352.558594
1481.399920	0.089890	0.578862	10432.380859
1481.400832	0.089930	0.578862	10514.397461
1481.401767	0.090055	0.578862	10598.598633
1481.402701	0.089784	0.578862	10682.457031
1482.414350	1.160728	0.506965	580.363770
1482.415284	1.564753	0.506965	2041.843506
1482.416210	1.547867	0.506965	3475.168701
1482.417087	1.508357	0.506965	4797.997559
1482.418060	1.465529	0.506965	6223.957031
1482.419013	1.425586	0.506965	7582.540527
1482.419907	1.388632	0.506965	8823.977539
1482.420801	1.081791	0.506965	9791.098633
1482.421752	0.129617	0.506965	9914.364258
1482.422700	0.089890	0.506965	9999.580078
1482.423576	0.090051	0.506965	10078.464844
1482.424489	0.089857	0.506965	10160.504883
1482.425440	0.089952	0.506965	10246.049805
1482.426362	0.089941	0.506965	10328.975586
1482.427244	0.090026	0.506965	10408.377930
1482.428209	0.089890	0.506965	10495.122070
1482.429127	0.089974	0.506965	10577.718750
1482.430019	0.090029	0.506965	10658.024414
1483.438955	1.112966	0.506034	521.981201
1483.439841	1.561066	0.506034	1905.085449
1483.440816	1.549607	0.506034	3415.952148
1483.441754	1.507870	0.506034	4830.333984
1483.442641	1.467565	0.506034	6132.063965
1483.443589	1.427692	0.506034	7485.515625
1483.444545	1.388005	0.506034	8812.449219
1483.445476	1.042306	0.506034	9782.835937
1483.446372	0.128881	0.506034	9898.312500
1483.447317	0.089908	0.506034	9983.276367
1483.448247	0.089897	0.506034	10066.880859
1483.449171	0.089927	0.506034	10149.973633
1483.450074	0.089908	0.506034	10231.161133
1483.451002	0.089905	0.506034	10314.592773
1483.451955	0.089989	0.506034	10400.352539
1483.452849	0.089941	0.506034	10480.759766
1483.453825	0.089993	0.506034	10568.592773
1483.454747	0.089886	0.506034	10651.467773
1484.420514	1.134144	0.589429	580.681885
1484.421398	1.562622	0.589429	1962.039795
1484.422274	1.551200	0.589429	3320.890869
1484.423154	1.510415	0.589429	4650.056152
1484.424191	1.465107	0.589429	6169.372559
1484.425097	1.426959	0.589429	7462.197754
1484.425984	1.391257	0.589429	8696.243164
1484.426967	1.043796	0.589429	9722.294922
1484.427920	0.122622	0.589429	9839.153320
1484.428847	0.089886	0.589429	9922.478516
1484.429708	0.089945	0.589429	9999.920898
1484.430742	0.089857	0.589429	10092.833008
1484.431622	0.089949	0.589429	10171.988281
1484.432501	0.089824	0.589429	10250.943359
1484.433478	0.089978	0.589429	10338.851562
1484.434426	0.089846	0.589429	10424.025391
1484.435329	0.089912	0.589429	10505.215820
1484.436208	0.089971	0.589429	10584.299805
1485.485651	1.069259	0.463213	474.751007
1485.486513	1.558517	0.463213	1818.192383
1485.487474	1.550761	0.463213	3308.473145
1485.488412	1.510327	0.463213	4725.160156
1485.489301	1.469971	0.463213	6031.963867
1485.490165	1.431702	0.463213	7268.954102
1485.491181	1.391785	0.463213	8683.007812
1485.492110	1.147742	0.463213	9749.259766
1485.492997	0.160496	0.463213	9891.619141
1485.493917	0.089824	0.463213	9974.257812
1485.494877	0.089963	0.463213	10060.623047
1485.495799	0.089901	0.463213	10143.511719
1485.496660	0.090004	0.463213	10221.004883
1485.497607	0.090018	0.463213	10306.251953
1485.498570	0.089795	0.463213	10392.724609
1485.499467	0.089927	0.463213	10473.388672
1485.500630	0.089905	0.463213	10577.948242
1485.501561	0.089927	0.463213	10661.669922
1486.438582	1.047631	0.620088	441.052521
1486.439568	1.557074	0.620088	1976.327393
1486.440574	1.545366	0.620088	3530.965820
1486.441464	1.505874	0.620088	4871.193359
1486.442329	1.465704	0.620088	6139.027344
1486.443418	1.421320	0.620088	7686.844238
1486.444336	1.383886	0.620088	8957.250977
1486.445213	0.990989	0.620088	9826.347656
1486.446178	0.120787	0.620088	9942.907227
1486.447198	0.089799	0.620088	10034.501953
1486.448094	0.090000	0.620088	10115.141602
1486.448962	0.089978	0.620088	10193.242187
1486.450023	0.089821	0.620088	10288.541992
1486.450950	0.089824	0.620088	10371.808594
1486.451830	0.089941	0.620088	10450.957031
1486.452798	0.089912	0.620088	10537.992187
1486.453817	0.089934	0.620088	10629.634766
1486.454701	0.089828	0.620088	10709.042969
1487.515854	1.072797	0.432272	462.375336
1487.516790	1.558096	0.432272	1920.752930
1487.517711	1.550350	0.432272	3348.625488
1487.518638	1.509818	0.432272	4748.226562
1487.519513	1.469846	0.432272	6034.341797
1487.520466	1.429303	0.432272	7396.467773
1487.521426	1.390283	0.432272	8731.139648
1487.522357	1.111553	0.432272	9765.995117
1487.523241	0.146851	0.432272	9895.810547
1487.524219	0.089751	0.432272	9983.586914
1487.525147	0.089886	0.432272	10067.001953
1487.526011	0.089813	0.432272	10144.600586
1487.527035	0.089930	0.432272	10236.689453
1487.527933	0.089956	0.432272	10317.469727
1487.528855	0.089890	0.432272	10400.348633
1487.529717	0.089930	0.432272	10477.869141
1487.530696	0.090114	0.432272	10566.089844
1487.531611	0.089949	0.432272	10648.392578
1488.476588	1.156278	0.575362	604.733459
1488.477504	1.564856	0.575362	2038.141602
1488.478380	1.549340	0.575362	3395.363281
1488.479392	1.505398	0.575362	4918.826172
1488.480398	1.459464	0.575362	6387.046875
1488.481285	1.422356	0.575362	7648.676758
1488.482145	1.386178	0.575362	8840.790039
1488.483228	0.835302	0.575362	9745.421875
1488.484130	0.100734	0.575362	9836.283203
1488.485007	0.089821	0.575362	9915.055664
1488.485971	0.089978	0.575362	10001.794922
1488.486991	0.089919	0.575362	10093.512695
1488.487881	0.089930	0.575362	10173.550781
1488.488747	0.089949	0.575362	10251.446289
1488.489798	0.089879	0.575362	10345.909180
1488.490732	0.089938	0.575362	10429.911133
1488.491652	0.090011	0.575362	10512.721680
1488.492520	0.089967	0.575362	10590.813477
1489.531328	1.052611	0.476906	449.464935
1489.532193	1.556862	0.476906	1796.150269
1489.533211	1.549907	0.476906	3373.955811
1489.534130	1.508335	0.476906	4760.115723
1489.535056	1.467360	0.476906	6118.890625
1489.535926	1.429021	0.476906	7362.138672
1489.536989	1.387229	0.476906	8836.762695
1489.537884	1.059653	0.476906	9785.152344
1489.538766	0.135831	0.476906	9904.955078
1489.539778	0.089846	0.476906	9995.879883
1489.540703	0.089813	0.476906	10078.957031
1489.541630	0.089923	0.476906	10162.315430
1489.542490	0.090004	0.476906	10239.718750
1489.543505	0.090062	0.476906	10331.131836
1489.544392	0.089974	0.476906	10410.939453
1489.545308	0.089960	0.476906	10493.342773
1489.546185	0.089945	0.476906	10572.224609
1489.547152	0.089912	0.476906	10659.169922
1490.519383	1.193804	0.541161	685.243286
1490.520355	1.567013	0.541161	2208.379883
1490.521223	1.544945	0.541161	3549.392090
1490.522094	1.503717	0.541161	4859.129883
1490.523211	1.456703	0.541161	6486.267090
1490.524122	1.418423	0.541161	7778.450195
1490.524989	1.383450	0.541161	8977.901367
1490.526042	0.736974	0.541161	9753.934570
1490.527013	0.093864	0.541161	9845.076172
1490.527893	0.089890	0.541161	9924.179687
1490.528759	0.089967	0.541161	10002.090820
1490.529874	0.089850	0.541161	10102.273437
1490.530777	0.089941	0.541161	10183.490234
1490.531638	0.090000	0.541161	10260.980469
1490.532698	0.089890	0.541161	10356.263672
1490.533660	0.089982	0.541161	10442.826172
1490.534588	0.089960	0.541161	10526.308594
1490.535449	0.089945	0.541161	10603.750977
1491.546838	1.090225	0.519578	479.698822
1491.547726	1.559333	0.519578	1864.386963
1491.548587	1.552522	0.519578	3201.108398
1491.549690	1.506592	0.519578	4862.878906
1491.550591	1.465261	0.519578	6183.079102
1491.551469	1.428420	0.519578	7437.232422
1491.552477	1.387907	0.519578	8836.242187
1491.553495	0.921215	0.519578	9774.039062
1491.554370	0.110555	0.519578	9870.775391
1491.555253	0.089864	0.519578	9950.125977
1491.556245	0.089982	0.519578	10039.387695
1491.557178	0.089930	0.519578	10123.292969
1491.558104	0.089901	0.519578	10206.541016
1491.558973	0.089846	0.519578	10284.617187
1491.560010	0.089912	0.519578	10377.856445
1491.560897	0.089890	0.519578	10457.588867
1491.561774	0.089795	0.519578	10536.338867
1491.562759	0.089923	0.519578	10624.913086
1492.559771	1.137250	0.506929	576.585632
1492.560649	1.562695	0.506929	1948.632080
1492.561513	1.551973	0.506929	3289.536377
1492.562576	1.505629	0.506929	4890.019531
1492.563527	1.462610	0.506929	6280.961426
1492.564401	1.425392	0.506929	7526.753906
1492.565306	1.387533	0.506929	8782.470703
1492.566409	0.848818	0.506929	9718.717773
1492.567310	0.102737	0.506929	9811.283203
1492.568179	0.089916	0.506929	9889.419922
1492.569192	0.090018	0.506929	9980.608398
1492.570159	0.089879	0.506929	10067.521484
1492.571070	0.090000	0.506929	10149.511719
1492.571947	0.089963	0.506929	10228.409180
1492.572986	0.089971	0.506929	10321.888672
1492.573895	0.089872	0.506929	10403.582031
1492.574808	0.089875	0.506929	10485.638672
1492.575669	0.089938	0.506929	10563.075195
1493.565321	1.093594	0.541822	552.264832
1493.566389	1.566163	0.541822	2224.927246
1493.567272	1.543557	0.541822	3587.888184
1493.568141	1.504211	0.541822	4895.047852
1493.569182	1.457930	0.541822	6412.752930
1493.570138	1.418053	0.541822	7768.411621
1493.571023	1.382344	0.541822	8991.786133
1493.571963	0.853674	0.541822	9794.240234
1493.573016	0.095676	0.541822	9894.987305
1493.573907	0.089821	0.541822	9975.017578
1493.574770	0.089897	0.541822	10052.598633
1493.575807	0.089978	0.541822	10145.906250
1493.576771	0.089971	0.541822	10232.637695
1493.577646	0.089989	0.541822	10311.377930
1493.578539	0.090040	0.541822	10391.784180
1493.579628	0.089905	0.541822	10489.690430
1493.580508	0.089916	0.541822	10568.816406
1493.581365	0.089864	0.541822	10645.830078
1494.598330	1.080348	0.478066	456.987152
1494.599442	1.565724	0.478066	2198.072021
1494.600351	1.543817	0.478066	3601.401855
1494.601232	1.504644	0.478066	4926.992676
1494.602239	1.459772	0.478066	6396.982910
1494.603242	1.417709	0.478066	7818.944824
1494.604134	1.381688	0.478066	9051.411133
1494.605007	0.883242	0.478066	9822.481445
1494.606108	0.095746	0.478066	9927.897461
1494.607023	0.089861	0.478066	10010.120117
1494.607889	0.090022	0.478066	10088.079102
1494.608980	0.090044	0.478066	10186.317383
1494.609953	0.089930	0.478066	10273.819336
1494.610874	0.090062	0.478066	10356.766602
1494.611739	0.089927	0.478066	10434.553711
1494.612803	0.090059	0.478066	10530.375977
1494.613697	0.089912	0.478066	10610.757812
1494.614563	0.089923	0.478066	10688.630859
1495.587134	1.054673	0.598021	448.235962
1495.588081	1.556305	0.598021	1922.056763
1495.589152	1.544077	0.598021	3575.763428
1495.590078	1.502377	0.598021	4966.964355
1495.590951	1.462269	0.598021	6243.525391
1495.592035	1.417899	0.598021	7780.528320
1495.593039	1.377356	0.598021	9163.393555
1495.593940	0.749128	0.598021	9838.358398
1495.594920	0.097485	0.598021	9933.894531
1495.595969	0.089923	0.598021	10028.223633
1495.596880	0.089846	0.598021	10110.073242
1495.597741	0.089930	0.598021	10187.502930
1495.598829	0.089952	0.598021	10285.371094
1495.599795	0.089879	0.598021	10372.194336
1495.600673	0.089971	0.598021	10451.188477
1495.601675	0.090000	0.598021	10541.368164
1495.602729	0.089817	0.598021	10636.035156
1495.603611	0.089919	0.598021	10715.343750
1496.632338	1.133112	0.441464	574.487549
1496.633260	1.564684	0.441464	2017.125977
1496.634124	1.549677	0.441464	3356.046387
1496.635192	1.502849	0.441464	4961.089355
1496.636202	1.457963	0.441464	6433.631836
1496.637105	1.420137	0.441464	7716.015137
1496.637972	1.384222	0.441464	8916.135742
1496.639062	0.748378	0.441464	9731.867187
1496.639998	0.095266	0.441464	9821.036133
1496.640873	0.089934	0.441464	9899.728516
1496.641861	0.090062	0.441464	9988.709961
1496.642859	0.089982	0.441464	10078.511719
1496.643743	0.089879	0.441464	10157.964844
1496.644601	0.089996	0.441464	10235.181641
1496.645679	0.089905	0.441464	10332.098633
1496.646596	0.089993	0.441464	10414.622070
1496.647462	0.090022	0.441464	10492.581055
1496.648411	0.089993	0.441464	10577.984375
1497.615021	1.162050	0.597099	610.075989
1497.616039	1.566486	0.597099	2204.758301
1497.616934	1.543824	0.597099	3586.481201
1497.617892	1.501260	0.597099	5024.687988
1497.618952	1.453945	0.597099	6565.870117
1497.619887	1.414951	0.597099	7888.849609
1497.620754	1.379103	0.597099	9084.531250
1497.621852	0.586443	0.597099	9728.445312
1497.622852	0.090817	0.597099	9819.261719
1497.623743	0.089978	0.597099	9899.432617
1497.624726	0.089971	0.597099	9987.874023
1497.625757	0.089868	0.597099	10080.528320
1497.626664	0.089934	0.597099	10162.098633
1497.627525	0.089941	0.597099	10239.538086
1497.628626	0.089971	0.597099	10338.595703
1497.629591	0.089868	0.597099	10425.318359
1497.630467	0.089824	0.597099	10504.003906
1497.631484	0.090077	0.597099	10595.612305
1498.662281	1.123857	0.424227	565.300232
1498.663191	1.564208	0.424227	1988.729248
1498.664055	1.549636	0.424227	3327.614990
1498.665153	1.502223	0.424227	4977.055664
1498.666147	1.457845	0.424227	6426.154297
1498.667048	1.420547	0.424227	7706.066895
1498.668047	1.380524	0.424227	9085.209961
1498.669108	0.639291	0.424227	9763.497070
1498.670002	0.093146	0.424227	9846.769531
1498.670869	0.089894	0.424227	9924.707031
1498.671958	0.090029	0.424227	10022.749023
1498.672918	0.089993	0.424227	10109.141602
1498.673781	0.089897	0.424227	10186.722656
1498.674824	0.090022	0.424227	10280.615234
1498.675852	0.089963	0.424227	10373.097656
1498.676733	0.089974	0.424227	10452.365234
1498.677592	0.089938	0.424227	10529.622070
1498.678644	0.089971	0.424227	10624.271484
1499.642682	1.053820	0.608434	447.873291
1499.643624	1.560385	0.608434	1917.755493
1499.644595	1.547959	0.608434	3420.823730
1499.645528	1.507086	0.608434	4826.935059
1499.646394	1.467176	0.608434	6097.509766
1499.647376	1.427150	0.608434	7498.970703
1499.648324	1.388701	0.608434	8815.458984
1499.649202	1.092246	0.608434	9774.451172
1499.650091	0.144811	0.608434	9903.187500
1499.651064	0.089828	0.608434	9990.589844
1499.652006	0.089905	0.608434	10075.280273
1499.652902	0.089868	0.608434	10155.801758
1499.653817	0.089846	0.608434	10238.010742
1499.654774	0.089758	0.608434	10323.909180
1499.655696	0.089879	0.608434	10406.777344
1499.656560	0.089930	0.608434	10484.477539
1499.657518	0.089861	0.608434	10570.564453
1499.658439	0.089901	0.608434	10653.363281
1500.691801	1.085402	0.403083	484.089081
1500.692680	1.559425	0.403083	1854.823730
1500.693617	1.551691	0.403083	3308.757812
1500.694585	1.509536	0.403083	4769.988770
1500.695499	1.467400	0.403083	6111.192383
1500.696381	1.429856	0.403083	7372.325195
1500.697340	1.391470	0.403083	8706.744141
1500.698264	1.100479	0.403083	9723.585937
1500.699199	0.139358	0.403083	9853.885742
1500.700061	0.089864	0.403083	9931.348633
1500.701036	0.089919	0.403083	10019.020508
1500.701983	0.089938	0.403083	10104.191406
1500.702878	0.089945	0.403083	10184.692383
1500.703799	0.089938	0.403083	10267.525391
1500.704758	0.089890	0.403083	10353.730469
1500.705678	0.089806	0.403083	10436.351562
1500.706536	0.089960	0.403083	10513.537109
1500.707583	0.089883	0.403083	10607.644531
1501.670002	1.097219	0.611806	514.595825
1501.670892	1.560729	0.611806	1903.644409
1501.671774	1.551749	0.611806	3272.287109
1501.672695	1.512246	0.611806	4665.065918
1501.673661	1.468546	0.611806	6083.681641
1501.674576	1.428970	0.611806	7391.188965
1501.675462	1.392997	0.611806	8625.384766
1501.676393	1.157992	0.611806	9703.475586
1501.677364	0.157679	0.611806	9856.582031
1501.678237	0.089762	0.611806	9934.944336
1501.679144	0.089960	0.611806	10016.538086
1501.680094	0.090110	0.611806	10102.142578
1501.681022	0.089956	0.611806	10185.622070
1501.681894	0.089872	0.611806	10263.990234
1501.682824	0.090004	0.611806	10347.693359
1501.683763	0.090015	0.611806	10432.216797
1501.684691	0.089941	0.611806	10515.682617
1501.685555	0.089916	0.611806	10593.370117
1502.719752	1.152964	0.394269	577.634888
1502.720687	1.564047	0.394269	2040.018433
1502.721618	1.547498	0.394269	3480.738770
1502.722482	1.507848	0.394269	4783.519531
1502.723436	1.465111	0.394269	6181.235352
1502.724396	1.425110	0.394269	7549.340820
1502.725302	1.388438	0.394269	8807.265625
1502.726221	1.069208	0.394269	9789.867187
1502.727186	0.124578	0.394269	9910.084961
1502.728108	0.089824	0.394269	9992.903320
1502.728984	0.089949	0.394269	10071.698242
1502.729960	0.089941	0.394269	10159.481445
1502.730904	0.090029	0.394269	10244.468750
1502.731783	0.089864	0.394269	10323.459961
1502.732898	0.090015	0.394269	10423.826172
1502.733838	0.089960	0.394269	10508.388672
1502.734772	0.089978	0.394269	10592.427734
1502.735631	0.089930	0.394269	10669.677734
1503.699572	1.085966	0.586979	508.231873
1503.700469	1.560381	0.586979	1907.893555
1503.701334	1.552028	0.586979	3250.397461
1503.702305	1.509184	0.586979	4715.815430
1503.703272	1.466048	0.586979	6133.484375
1503.704204	1.427289	0.586979	7463.717773
1503.705065	1.391041	0.586979	8661.404297
1503.706016	1.108777	0.586979	9715.851562
1503.706981	0.138431	0.586979	9849.437500
1503.707877	0.089824	0.586979	9929.919922
1503.708793	0.089890	0.586979	10012.259766
1503.709713	0.089850	0.586979	10094.921875
1503.710661	0.089868	0.586979	10180.117187
1503.711550	0.089890	0.586979	10260.029297
1503.712480	0.089846	0.586979	10343.585937
1503.713432	0.089971	0.586979	10429.238281
1503.714318	0.089949	0.586979	10508.932617
1503.715235	0.089857	0.586979	10591.332031
1504.747576	1.049670	0.380935	441.911255
1504.748570	1.558136	0.380935	1990.698364
1504.749470	1.549852	0.380935	3385.565430
1504.750393	1.509247	0.380935	4778.600098
1504.751254	1.469539	0.380935	6043.873047
1504.752205	1.428333	0.380935	7402.217285
1504.753165	1.389943	0.380935	8736.562500
1504.754100	1.104961	0.380935	9769.701172
1504.754981	0.145382	0.380935	9897.783203
1504.755957	0.089857	0.380935	9985.483398
1504.756903	0.089835	0.380935	10070.467773
1504.757794	0.089974	0.380935	10150.634766
1504.758707	0.089934	0.380935	10232.744141
1504.759626	0.089839	0.380935	10315.305664
1504.760584	0.090022	0.380935	10401.546875
1504.761463	0.089886	0.380935	10480.556641
1504.762367	0.090066	0.380935	10561.976562
1504.763313	0.089996	0.380935	10647.113281
1505.729110	1.076115	0.572735	472.414276
1505.729978	1.557598	0.572735	1824.409058
1505.730846	1.552903	0.572735	3172.328613
1505.731904	1.507976	0.572735	4767.767578
1505.732801	1.467393	0.572735	6084.018555
1505.733682	1.430270	0.572735	7344.086426
1505.734655	1.391301	0.572735	8697.822266
1505.735616	1.100413	0.572735	9755.318359
1505.736546	0.134454	0.572735	9880.361328
1505.737411	0.089788	0.572735	9958.027344
1505.738449	0.089839	0.572735	10051.280273
1505.739339	0.089923	0.572735	10131.311523
1505.740215	0.089908	0.572735	10210.071289
1505.741124	0.089982	0.572735	10291.864258
1505.742141	0.089905	0.572735	10383.297852
1505.743039	0.089681	0.572735	10463.832031
1505.743929	0.089879	0.572735	10543.824219
1505.744924	0.090007	0.572735	10633.381836
1506.774691	1.135309	0.373676	600.578369
1506.775644	1.566072	0.373676	2093.044922
1506.776576	1.545432	0.373676	3533.387695
1506.777445	1.505599	0.373676	4841.753418
1506.778490	1.459973	0.373676	6367.425293
1506.779374	1.422755	0.373676	7625.140625
1506.780247	1.387262	0.373676	8836.220703
1506.781231	0.946143	0.373676	9767.224609
1506.782165	0.108347	0.373676	9868.420898
1506.783094	0.089868	0.373676	9951.908203
1506.783974	0.090015	0.373676	10031.121094
1506.784996	0.089905	0.373676	10123.003906
1506.785898	0.089993	0.373676	10204.177734
1506.786818	0.089934	0.373676	10286.916992
1506.787703	0.089930	0.373676	10366.505859
1506.788676	0.089791	0.373676	10453.873047
1506.789611	0.089824	0.373676	10537.858398
1506.790495	0.089923	0.373676	10617.350586
1507.760513	1.089650	0.548014	538.286926
1507.761572	1.565808	0.548014	2196.477539
1507.762470	1.543550	0.548014	3582.585449
1507.763335	1.504493	0.548014	4883.972168
1507.764376	1.458241	0.548014	6402.000977
1507.765349	1.417859	0.548014	7781.577637
1507.766232	1.382062	0.548014	9001.938477
1507.767125	0.875966	0.548014	9784.175781
1507.768218	0.097148	0.548014	9890.359375
1507.769101	0.089886	0.548014	9969.729492
1507.769958	0.089908	0.548014	10046.781250
1507.770980	0.089978	0.548014	10138.739258
1507.771946	0.089938	0.548014	10225.619141
1507.772825	0.089850	0.548014	10304.596680
1507.773683	0.090011	0.548014	10381.826172
1507.774789	0.090040	0.548014	10481.411133
1507.775697	0.089788	0.548014	10562.938477
1507.776580	0.089952	0.548014	10642.366211
1508.796352	1.058123	0.393821	452.876434
1508.797347	1.558422	0.393821	2003.505981
1508.798353	1.544502	0.393821	3557.274902
1508.799247	1.504691	0.393821	4902.468750
1508.800108	1.464763	0.393821	6163.629883
1508.801193	1.420800	0.393821	7705.197266
1508.802105	1.382816	0.393821	8966.326172
1508.803029	0.912037	0.393821	9809.048828
1508.803910	0.109482	0.393821	9905.502930
1508.804952	0.089839	0.393821	9999.115234
1508.805844	0.089835	0.393821	10079.248047
1508.806723	0.089938	0.393821	10158.303711
1508.807698	0.089875	0.393821	10245.932617
1508.808657	0.089850	0.393821	10332.098633
1508.809574	0.089989	0.393821	10414.618164
1508.810436	0.089846	0.393821	10492.065430
1508.811468	0.089901	0.393821	10584.843750
1508.812343	0.089817	0.393821	10663.433594
1509.795903	1.057914	0.484322	450.671326
1509.796898	1.559044	0.484322	2001.920410
1509.797955	1.542696	0.484322	3632.550537
1509.798860	1.501560	0.484322	4991.462402
1509.799729	1.462551	0.484322	6262.419434
1509.800782	1.418525	0.484322	7756.126953
1509.801766	1.379015	0.484322	9113.077148
1509.802653	0.824253	0.484322	9844.189453
1509.803538	0.103059	0.484322	9935.396484
1509.804640	0.089974	0.484322	10034.547852
1509.805539	0.089714	0.484322	10115.201172
1509.806400	0.089956	0.484322	10192.653320
1509.807502	0.089813	0.484322	10291.627930
1509.808476	0.089945	0.484322	10379.234375
1509.809349	0.089949	0.484322	10457.759766
1509.810236	0.089908	0.484322	10537.508789
1509.811324	0.089908	0.484322	10635.329102
1509.812205	0.089890	0.484322	10714.522461
1510.814093	1.135862	0.426669	569.066711
1510.815040	1.565010	0.426669	2051.131104
1510.815908	1.548739	0.426669	3395.436523
1510.816934	1.503201	0.426669	4937.720215
1510.817971	1.457355	0.426669	6448.997070
1510.818864	1.419562	0.426669	7716.665527
1510.819809	1.381772	0.426669	9022.440430
1510.820895	0.655320	0.426669	9734.118164
1510.821835	0.092919	0.426669	9821.461914
1510.822698	0.089971	0.426669	9899.106445
1510.823770	0.089982	0.426669	9995.566406
1510.824779	0.089971	0.426669	10086.346680
1510.825672	0.090029	0.426669	10166.743164
1510.826636	0.089967	0.426669	10253.471680
1510.827682	0.089982	0.426669	10347.592773
1510.828598	0.089861	0.426669	10429.905273
1510.829461	0.089923	0.426669	10507.508789
1510.830537	0.090110	0.426669	10604.466797
1511.834512	1.130010	0.433819	566.134888
1511.835392	1.562373	0.433819	1941.023193
1511.836313	1.549091	0.433819	3367.735840
1511.837399	1.501465	0.433819	4998.326660
1511.838354	1.459028	0.433819	6391.698730
1511.839218	1.422074	0.433819	7620.370605
1511.840266	1.380549	0.433819	9067.186523
1511.841301	0.674733	0.433819	9765.535156
1511.842179	0.094757	0.433819	9848.731445
1511.843139	0.089828	0.433819	9934.965820
1511.844197	0.090007	0.433819	10030.193359
1511.845116	0.089938	0.433819	10112.845703
1511.845989	0.090029	0.433819	10191.441406
1511.847053	0.090033	0.433819	10287.236328
1511.848049	0.089799	0.433819	10376.675781
1511.848940	0.089927	0.433819	10456.800781
1511.849914	0.090022	0.433819	10544.482422
1511.850961	0.090000	0.433819	10638.712891
1512.829564	1.091547	0.465151	520.667725
1512.830494	1.562564	0.465151	1973.851807
1512.831378	1.549904	0.465151	3343.966797
1512.832259	1.510818	0.465151	4674.997070
1512.833209	1.467839	0.465151	6069.444336
1512.834170	1.427827	0.465151	7441.585937
1512.835047	1.391657	0.465151	8662.068359
1512.835965	1.139736	0.465151	9708.346680
1512.836931	0.147224	0.465151	9850.565430
1512.837863	0.089919	0.465151	9934.370117
1512.838735	0.089850	0.465151	10012.718750
1512.839794	0.089952	0.465151	10107.978516
1512.840847	0.090029	0.465151	10202.779297
1512.841768	0.089872	0.465151	10285.550781
1512.842632	0.089908	0.465151	10363.231445
1512.843692	0.089916	0.465151	10458.541992
1512.844675	0.089791	0.465151	10546.806641
1512.845569	0.090029	0.465151	10627.292969
1513.873824	1.147002	0.405866	587.265015
1513.874771	1.565618	0.405866	2069.904785
1513.875636	1.548395	0.405866	3409.266113
1513.876701	1.501359	0.405866	5008.212891
1513.877721	1.455758	0.405866	6493.085937
1513.878617	1.418474	0.405866	7764.039062
1513.879573	1.380421	0.405866	9083.721680
1513.880628	0.641499	0.405866	9760.502930
1513.881561	0.092900	0.405866	9847.178711
1513.882421	0.089868	0.405866	9924.464844
1513.883487	0.089916	0.405866	10020.315430
1513.884494	0.089864	0.405866	10110.808594
1513.885367	0.089894	0.405866	10189.286133
1513.886323	0.090022	0.405866	10275.346680
1513.887376	0.089908	0.405866	10370.020508
1513.888299	0.089941	0.405866	10453.036133
1513.889171	0.089927	0.405866	10531.452148
1513.890237	0.089967	0.405866	10627.357422
1514.845178	1.100955	0.488632	535.063904
1514.846113	1.562578	0.488632	1996.074463
1514.847036	1.548175	0.488632	3425.040039
1514.847901	1.509130	0.488632	4730.437012
1514.848841	1.466810	0.488632	6109.238770
1514.849781	1.426516	0.488632	7450.164062
1514.850712	1.389499	0.488632	8743.788086
1514.851576	1.118665	0.488632	9710.314453
1514.852559	0.140098	0.488632	9848.030273
1514.853507	0.089949	0.488632	9933.301758
1514.854404	0.090004	0.488632	10014.035156
1514.855310	0.089941	0.488632	10095.522461
1514.856265	0.089923	0.488632	10181.399414
1514.857197	0.090004	0.488632	10265.283203
1514.858065	0.089963	0.488632	10343.371094
1514.858984	0.089978	0.488632	10426.060547
1514.859936	0.089912	0.488632	10511.657227
1514.860863	0.089993	0.488632	10595.080078
1515.911098	1.052084	0.404891	441.875153
1515.912018	1.557737	0.404891	1874.993042
1515.912992	1.549446	0.404891	3384.153320
1515.913923	1.508247	0.404891	4788.331543
1515.914804	1.468217	0.404891	6081.830078
1515.915759	1.427600	0.404891	7445.187988
1515.916696	1.389199	0.404891	8746.867187
1515.917631	1.099698	0.404891	9775.084961
1515.918500	0.147253	0.404891	9903.047852
1515.919481	0.089828	0.404891	9991.168945
1515.920428	0.089967	0.404891	10076.368164
1515.921302	0.089967	0.404891	10154.999023
1515.922235	0.089930	0.404891	10238.904297
1515.923310	0.090007	0.404891	10335.662109
1515.924304	0.089993	0.404891	10425.115234
1515.925192	0.089934	0.404891	10504.976562
1515.926158	0.090066	0.404891	10591.980469
1515.927211	0.090033	0.404891	10686.785156
1516.868673	1.059701	0.518804	456.731079
1516.869542	1.556785	0.518804	1809.576904
1516.870433	1.552657	0.518804	3192.994629
1516.871415	1.510584	0.518804	4676.387695
1516.872347	1.468711	0.518804	6045.226074
1516.873231	1.431306	0.518804	7310.500977
1516.874153	1.393799	0.518804	8595.583984
1516.875116	1.177844	0.518804	9729.847656
1516.876048	0.163542	0.518804	9882.269531
1516.876913	0.089777	0.518804	9959.926758
1516.877846	0.089952	0.518804	10043.852539
1516.878773	0.089758	0.518804	10127.058594
1516.879691	0.089974	0.518804	10209.655273
1516.880563	0.089813	0.518804	10287.972656
1516.881530	0.090033	0.518804	10375.034180
1516.882486	0.089872	0.518804	10460.951172
1516.883381	0.090018	0.518804	10541.517578
1516.884293	0.089996	0.518804	10623.593750
1517.937620	1.083186	0.387304	469.019562
1517.938510	1.559103	0.387304	1856.620972
1517.939442	1.551321	0.387304	3302.451904
1517.940311	1.511733	0.387304	4616.148437
1517.941307	1.468422	0.387304	6078.696289
1517.942213	1.429321	0.387304	7373.661133
1517.943105	1.393352	0.387304	8616.531250
1517.944025	1.182689	0.387304	9704.605469
1517.944988	0.160920	0.387304	9859.572266
1517.945916	0.089711	0.387304	9942.824219
1517.946794	0.089919	0.387304	10021.773437
1517.947761	0.089941	0.387304	10108.747070
1517.948678	0.089857	0.387304	10191.146484
1517.949595	0.089901	0.387304	10273.585937
1517.950456	0.089949	0.387304	10351.032227
1517.951422	0.089894	0.387304	10437.870117
1517.952370	0.089890	0.387304	10523.085937
1517.953244	0.089879	0.387304	10601.640625
1518.906168	1.061290	0.518139	448.925781
1518.907222	1.564054	0.518139	2097.438477
1518.908107	1.546864	0.518139	3466.413086
1518.908980	1.508181	0.518139	4783.055176
1518.909959	1.464983	0.518139	6217.273437
1518.910929	1.423663	0.518139	7598.227051
1518.911833	1.386819	0.518139	8851.911133
1518.912713	1.083113	0.518139	9805.050781
1518.913745	0.118623	0.518139	9927.469727
1518.914641	0.089996	0.518139	10008.106445
1518.915514	0.089923	0.518139	10086.609375
1518.916381	0.089996	0.518139	10164.635742
1518.917427	0.089861	0.518139	10258.629883
1518.918320	0.089795	0.518139	10338.816406
1518.919197	0.089897	0.518139	10417.656250
1518.920186	0.090004	0.518139	10506.669922
1518.921107	0.089901	0.518139	10589.468750
1518.922035	0.089864	0.518139	10672.863281
1519.951458	1.089364	0.400879	502.196777
1519.952349	1.560169	0.400879	1892.306885
1519.953338	1.548574	0.400879	3423.846680
1519.954279	1.506108	0.400879	4841.094727
1519.955207	1.464891	0.400879	6200.513672
1519.956068	1.427216	0.400879	7429.346191
1519.957094	1.386281	0.400879	8851.669922
1519.958000	1.036864	0.400879	9791.068359
1519.958883	0.128386	0.400879	9904.433594
1519.959826	0.089879	0.400879	9989.189453
1519.960795	0.089854	0.400879	10076.257812
1519.961713	0.090007	0.400879	10158.884766
1519.962590	0.089864	0.400879	10237.696289
1519.963629	0.089993	0.400879	10331.198242
1519.964523	0.089857	0.400879	10411.530273
1519.965400	0.089941	0.400879	10490.409180
1519.966280	0.089897	0.400879	10569.518555
1519.967326	0.089941	0.400879	10663.597656
1520.953125	1.155568	0.424795	597.428467
1520.954070	1.565149	0.424795	2076.494141
1520.954947	1.547736	0.424795	3433.858398
1520.955878	1.505793	0.424795	4835.751953
1520.956931	1.459270	0.424795	6372.363281
1520.957835	1.421254	0.424795	7657.176758
1520.958704	1.385881	0.424795	8861.507812
1520.959748	0.840710	0.424795	9739.209961
1520.960709	0.098167	0.424795	9833.547852
1520.961584	0.089821	0.424795	9912.140625
1520.962500	0.089941	0.424795	9994.527344
1520.963577	0.089923	0.424795	10091.375000
1520.964465	0.089905	0.424795	10171.210937
1520.965324	0.089901	0.424795	10248.435547
1520.966365	0.090040	0.424795	10342.167969
1520.967328	0.089923	0.424795	10428.763672
1520.968208	0.090026	0.424795	10507.986328
1520.969088	0.090092	0.424795	10587.266602
1521.962545	1.168784	0.421621	625.299500
1521.963573	1.566357	0.421621	2235.514893
1521.964474	1.542572	0.421621	3625.372314
1521.965428	1.499875	0.421621	5056.253418
1521.966485	1.453070	0.421621	6592.148437
1521.967415	1.414025	0.421621	7907.191406
1521.968279	1.378861	0.421621	9098.527344
1521.969340	0.615963	0.421621	9752.064453
1521.970340	0.091362	0.421621	9843.426758
1521.971223	0.089835	0.421621	9922.750977
1521.972202	0.089956	0.421621	10010.818359
1521.973243	0.089897	0.421621	10104.401367
1521.974154	0.089883	0.421621	10186.284180
1521.975011	0.089908	0.421621	10263.335937
1521.976079	0.089934	0.421621	10359.385742
1521.977082	0.089927	0.421621	10449.582031
1521.977952	0.089879	0.421621	10527.777344
1521.978926	0.089912	0.421621	10615.351562
1522.993742	1.070167	0.371448	473.013947
1522.994613	1.558429	0.371448	1830.405518
1522.995606	1.549164	0.371448	3368.725098
1522.996665	1.503219	0.371448	4960.633789
1522.997559	1.462386	0.371448	6268.007324
1522.998437	1.423923	0.371448	7518.211914
1522.999536	1.381110	0.371448	9036.051758
1523.000493	0.805126	0.371448	9806.556641
1523.001356	0.101653	0.371448	9894.283203
1523.002387	0.089996	0.371448	9987.069336
1523.003409	0.089967	0.371448	10079.015625
1523.004295	0.089963	0.371448	10158.723633
1523.005229	0.089960	0.371448	10242.746094
1523.006287	0.089908	0.371448	10337.869141
1523.007229	0.089974	0.371448	10422.625000
1523.008088	0.090000	0.371448	10499.934570
1523.009114	0.090004	0.371448	10592.278320
1523.010143	0.089886	0.371448	10684.771484
1523.981166	1.101464	0.436461	501.165924
1523.982118	1.562080	0.436461	1988.266113
1523.983049	1.547820	0.436461	3429.286377
1523.983916	1.508339	0.436461	4737.016113
1523.984899	1.465481	0.436461	6177.583984
1523.985826	1.425732	0.436461	7499.237793
1523.986729	1.389144	0.436461	8753.634766
1523.987642	1.103690	0.436461	9761.303711
1523.988606	0.133228	0.436461	9889.735352
1523.989531	0.089773	0.436461	9972.775391
1523.990410	0.089934	0.436461	10051.827148
1523.991393	0.089854	0.436461	10140.153320
1523.992351	0.089886	0.436461	10226.264648
1523.993283	0.089952	0.436461	10310.100586
1523.994146	0.089854	0.436461	10387.644531
1523.995111	0.089861	0.436461	10474.360352
1523.996048	0.089890	0.436461	10558.587891
1523.996920	0.089897	0.436461	10636.978516
1525.024056	1.060463	0.382558	447.515228
1525.025015	1.560707	0.382558	1944.233032
1525.025946	1.548633	0.382558	3386.010254
1525.026842	1.509397	0.382558	4738.429687
1525.027760	1.467784	0.382558	6085.855469
1525.028724	1.427520	0.382558	7461.984375
1525.029649	1.389917	0.382558	8747.657227
1525.030522	1.175585	0.382558	9773.942383
1525.031503	0.138435	0.382558	9909.747070
1525.032452	0.089824	0.382558	9994.990234
1525.033387	0.089930	0.382558	10079.075195
1525.034247	0.089927	0.382558	10156.412109
1525.035225	0.089919	0.382558	10244.353516
1525.036136	0.089967	0.382558	10326.313477
1525.037020	0.089952	0.382558	10405.831055
1525.037977	0.089835	0.382558	10491.803711
1525.038904	0.089886	0.382558	10575.128906
1525.039826	0.089982	0.382558	10658.091797
1526.011732	1.075979	0.455898	472.354767
1526.012613	1.558689	0.455898	1845.559692
1526.013508	1.551907	0.455898	3234.516113
1526.014470	1.509558	0.455898	4686.710937
1526.015420	1.467228	0.455898	6080.577148
1526.016316	1.429427	0.455898	7361.344238
1526.017229	1.392286	0.455898	8632.501953
1526.018190	1.143673	0.455898	9731.572266
1526.019119	0.151593	0.455898	9872.402344
1526.019983	0.089780	0.455898	9949.972656
1526.020951	0.089872	0.455898	10036.968750
1526.021857	0.089949	0.455898	10118.461914
1526.022770	0.089934	0.455898	10200.571289
1526.023642	0.089817	0.455898	10278.891602
1526.024622	0.089945	0.455898	10367.038086
1526.025551	0.089960	0.455898	10450.610352
1526.026415	0.089883	0.455898	10528.269531
1526.027387	0.089905	0.455898	10615.657227
1527.044816	1.079722	0.395300	470.758667
1527.045696	1.558484	0.395300	1842.224487
1527.046562	1.553035	0.395300	3187.152344
1527.047549	1.511041	0.395300	4678.549805
1527.048505	1.467894	0.395300	6081.856934
1527.049402	1.429614	0.395300	7364.220703
1527.050320	1.393253	0.395300	8643.227539
1527.051266	1.153447	0.395300	9734.388672
1527.052201	0.150875	0.395300	9875.457031
1527.053079	0.089861	0.395300	9954.354492
1527.054008	0.089956	0.395300	10037.923828
1527.054939	0.089875	0.395300	10121.597656
1527.055836	0.089923	0.395300	10202.258789
1527.056751	0.089799	0.395300	10284.424805
1527.057698	0.089989	0.395300	10369.644531
1527.058627	0.089993	0.395300	10453.248047
1527.059501	0.089930	0.395300	10531.847656
1527.060449	0.090088	0.395300	10617.250977
1528.051772	1.050659	0.427172	442.327515
1528.052678	1.555609	0.427172	1851.709351
1528.053643	1.548900	0.427172	3346.397949
1528.054577	1.508152	0.427172	4755.011719
1528.055464	1.468319	0.427172	6057.411133
1528.056410	1.428560	0.427172	7408.828613
1528.057368	1.389551	0.427172	8740.018555
1528.058300	1.108440	0.427172	9773.084961
1528.059170	0.149674	0.427172	9903.301758
1528.060145	0.089813	0.427172	9990.870117
1528.061085	0.089908	0.427172	10075.383789
1528.061990	0.089971	0.427172	10156.807617
1528.062856	0.089971	0.427172	10234.722656
1528.063819	0.089963	0.427172	10321.357422
1528.064764	0.089971	0.427172	10406.379883
1528.065658	0.089963	0.427172	10486.807617
1528.066568	0.089967	0.427172	10568.677734
1528.067503	0.089850	0.427172	10652.687500
1529.060455	1.085592	0.413295	506.971466
1529.061347	1.561033	0.413295	1899.412720
1529.062300	1.549332	0.413295	3375.926270
1529.063273	1.506065	0.413295	4841.327148
1529.064209	1.464155	0.413295	6211.776367
1529.065092	1.426703	0.413295	7471.554687
1529.066025	1.389569	0.413295	8768.022461
1529.066963	1.045045	0.413295	9748.275391
1529.067876	0.129020	0.413295	9866.070312
1529.068755	0.089777	0.413295	9944.984375
1529.069766	0.089795	0.413295	10035.766602
1529.070692	0.089810	0.413295	10118.930664
1529.071612	0.090073	0.413295	10201.797852
1529.072480	0.089927	0.413295	10279.854492
1529.073471	0.089868	0.413295	10368.914062
1529.074395	0.089923	0.413295	10452.002930
1529.075277	0.089839	0.413295	10531.241211
1529.076199	0.089824	0.413295	10614.059570
1530.092337	1.135353	0.361615	615.361206
1530.093283	1.565153	0.361615	2095.995605
1530.094214	1.544791	0.361615	3534.196289
1530.095083	1.505435	0.361615	4842.418945
1530.096127	1.459958	0.361615	6366.615723
1530.097005	1.421949	0.361615	7615.087402
1530.097925	1.384951	0.361615	8889.242187
1530.098814	1.011475	0.361615	9788.443359
1530.099787	0.109962	0.361615	9895.436523
1530.100712	0.089890	0.361615	9978.584961
1530.101587	0.089963	0.361615	10057.302734
1530.102656	0.089908	0.361615	10153.415039
1530.103553	0.089868	0.361615	10234.026367
1530.104467	0.089934	0.361615	10316.226562
1530.105331	0.090044	0.361615	10394.024414
1530.106301	0.089963	0.361615	10481.289062
1530.107228	0.089952	0.361615	10564.674805
1530.108150	0.089945	0.361615	10647.604492
1531.076292	1.056709	0.434451	454.384827
1531.077170	1.557363	0.434451	1821.749756
1531.078032	1.552643	0.434451	3160.127930
1531.079128	1.507266	0.434451	4812.090820
1531.080019	1.466316	0.434451	6118.578125
1531.080894	1.429537	0.434451	7369.423340
1531.081920	1.388514	0.434451	8794.039062
1531.082928	0.962311	0.434451	9764.048828
1531.083809	0.115902	0.434451	9866.158203
1531.084675	0.089908	0.434451	9944.018555
1531.085765	0.090084	0.434451	10042.209961
1531.086679	0.089941	0.434451	10124.416016
1531.087559	0.090000	0.434451	10203.616211
1531.088552	0.090004	0.434451	10292.990234
1531.089549	0.089883	0.434451	10382.603516
1531.090437	0.089941	0.434451	10462.471680
1531.091300	0.090048	0.434451	10540.182617
1531.092398	0.089945	0.434451	10638.942383
1532.127291	1.053318	0.343762	444.500153
1532.128280	1.557092	0.343762	1984.464355
1532.129297	1.544480	0.343762	3555.200439
1532.130181	1.504669	0.343762	4885.328125
1532.131040	1.465133	0.343762	6143.877441
1532.132104	1.421693	0.343762	7656.558594
1532.133027	1.383552	0.343762	8933.577148
1532.133913	0.996951	0.343762	9816.875000
1532.134864	0.122278	0.343762	9933.161133
1532.135900	0.089868	0.343762	10026.264648
1532.136802	0.090004	0.343762	10107.448242
1532.137665	0.089974	0.343762	10185.095703
1532.138713	0.089923	0.343762	10279.334961
1532.139667	0.089919	0.343762	10365.118164
1532.140544	0.089967	0.343762	10444.019531
1532.141475	0.089985	0.343762	10527.795898
1532.142509	0.089923	0.343762	10620.776367
1532.143396	0.089945	0.343762	10700.557617
1533.096891	1.052245	0.453767	444.047363
1533.097904	1.558671	0.453767	2022.980713
1533.098953	1.542382	0.453767	3640.938965
1533.099845	1.501604	0.453767	4980.369629
1533.100709	1.460771	0.453767	6242.476074
1533.101823	1.416420	0.453767	7820.367676
1533.102787	1.378059	0.453767	9148.816406
1533.103652	0.814354	0.453767	9853.232422
1533.104692	0.095563	0.453767	9952.618164
1533.105728	0.089773	0.453767	10045.623047
1533.106616	0.089945	0.453767	10125.494141
1533.107544	0.089912	0.453767	10208.932617
1533.108617	0.089927	0.453767	10305.423828
1533.109557	0.089952	0.453767	10389.979492
1533.110425	0.089897	0.453767	10468.010742
1533.111460	0.089941	0.453767	10561.099609
1533.112482	0.089923	0.453767	10653.000977
1533.113383	0.089993	0.453767	10734.083984
1534.160314	1.053014	0.339882	442.265839
1534.161370	1.562472	0.339882	2092.236328
1534.162394	1.541338	0.339882	3670.566406
1534.163273	1.501450	0.339882	4990.340820
1534.164244	1.459299	0.339882	6407.320312
1534.165297	1.414746	0.339882	7897.047852
1534.166218	1.377422	0.339882	9165.653320
1534.167100	0.784438	0.339882	9857.528320
1534.168070	0.099690	0.339882	9954.227539
1534.169088	0.089850	0.339882	10045.694336
1534.169985	0.089985	0.339882	10126.411133
1534.170851	0.089854	0.339882	10204.224609
1534.171902	0.089908	0.339882	10298.718750
1534.172840	0.089949	0.339882	10383.090820
1534.173722	0.090011	0.339882	10462.480469
1534.174693	0.089930	0.339882	10549.802734
1534.175708	0.089956	0.339882	10641.108398
1534.176597	0.089912	0.339882	10721.040039
1535.122875	1.067703	0.453364	449.502808
1535.123871	1.561432	0.453364	2004.688965
1535.124800	1.547358	0.453364	3442.185059
1535.125679	1.508254	0.453364	4767.940430
1535.126592	1.466759	0.453364	6107.091309
1535.127537	1.427011	0.453364	7455.616211
1535.128472	1.389269	0.453364	8754.582031
1535.129355	1.140308	0.453364	9761.473633
1535.130338	0.141108	0.453364	9900.183594
1535.131254	0.089835	0.453364	9982.472656
1535.132181	0.089923	0.453364	10065.831055
1535.133044	0.089828	0.453364	10143.352539
1535.134026	0.089864	0.453364	10231.599609
1535.134976	0.090000	0.453364	10317.099609
1535.135870	0.089927	0.453364	10397.494141
1535.136797	0.089916	0.453364	10480.845703
1535.137727	0.089828	0.453364	10564.385742
1535.138660	0.089791	0.453364	10648.161133
1536.189623	1.071464	0.332337	453.229095
1536.190612	1.562842	0.332337	1998.879639
1536.191546	1.547329	0.332337	3444.084961
1536.192465	1.506793	0.332337	4828.828125
1536.193332	1.466415	0.332337	6100.209961
1536.194422	1.421792	0.332337	7649.962891
1536.195451	1.380465	0.332337	9070.460937
1536.196345	0.868315	0.332337	9846.735352
1536.197282	0.106432	0.332337	9946.461914
1536.198344	0.089864	0.332337	10041.898437
1536.199273	0.089996	0.332337	10125.504883
1536.200136	0.089985	0.332337	10203.162109
1536.201177	0.090011	0.332337	10296.863281
1536.202202	0.089912	0.332337	10389.023437
1536.203072	0.089974	0.332337	10467.300781
1536.204027	0.089971	0.332337	10553.222656
1536.205082	0.089941	0.332337	10648.111328
1536.206000	0.089985	0.332337	10730.717773
1537.149656	1.074254	0.457650	483.414368
1537.150580	1.559714	0.457650	1924.590332
1537.151443	1.550999	0.457650	3263.102051
1537.152430	1.508632	0.457650	4752.121582
1537.153364	1.466191	0.457650	6121.544434
1537.154259	1.428303	0.457650	7399.875977
1537.155133	1.392015	0.457650	8616.497070
1537.156101	1.127018	0.457650	9707.450195
1537.157064	0.141372	0.457650	9843.591797
1537.157957	0.089795	0.457650	9923.778320
1537.158875	0.089938	0.457650	10006.340820
1537.159836	0.089971	0.457650	10092.802734
1537.160756	0.089850	0.457650	10175.464844
1537.161614	0.089967	0.457650	10252.656250
1537.162539	0.089996	0.457650	10335.903320
1537.163478	0.089927	0.457650	10420.344727
1537.164407	0.089879	0.457650	10503.842773
1537.165270	0.089861	0.457650	10581.392578
1538.217051	1.087039	0.326722	485.906219
1538.217923	1.559150	0.326722	1845.485474
1538.218843	1.551357	0.326722	3272.734375
1538.219809	1.509298	0.326722	4730.716309
1538.220743	1.467034	0.326722	6100.925781
1538.221625	1.429680	0.326722	7361.903809
1538.222572	1.391210	0.326722	8679.378906
1538.223505	1.121499	0.326722	9725.737305
1538.224432	0.144672	0.326722	9859.847656
1538.225292	0.089707	0.326722	9936.996094
1538.226272	0.089960	0.326722	10025.156250
1538.227222	0.089908	0.326722	10110.569336
1538.228113	0.089897	0.326722	10190.667969
1538.229030	0.089927	0.326722	10273.130859
1538.229956	0.089843	0.326722	10356.325195
1538.230911	0.090026	0.326722	10442.299805
1538.231808	0.089912	0.326722	10522.951172
1538.232718	0.089923	0.326722	10604.781250
1539.178382	1.119338	0.470956	565.265869
1539.179265	1.561776	0.470956	1944.314087
1539.180138	1.550607	0.470956	3297.993652
1539.181022	1.510052	0.470956	4632.879883
1539.182081	1.464174	0.470956	6183.439453
1539.182978	1.426095	0.470956	7462.646484
1539.183867	1.390195	0.470956	8698.530273
1539.184893	1.012896	0.470956	9737.760742
1539.185803	0.122937	0.470956	9849.633789
1539.186725	0.089897	0.470956	9932.519531
1539.187587	0.089963	0.470956	10010.068359
1539.188623	0.089905	0.470956	10103.209961
1539.189498	0.089949	0.470956	10181.915039
1539.190377	0.090033	0.470956	10261.053711
1539.191356	0.089993	0.470956	10349.156250
1539.192298	0.089956	0.470956	10433.894531
1539.193212	0.089941	0.470956	10516.100586
1539.194084	0.090007	0.470956	10594.586914
1540.243149	1.074368	0.307551	472.721771
1540.244011	1.557195	0.307551	1815.023804
1540.245071	1.547172	0.307551	3455.025635
1540.245956	1.507562	0.307551	4789.218262
1540.246825	1.468092	0.307551	6064.990234
1540.247776	1.428076	0.307551	7423.090820
1540.248758	1.388079	0.307551	8786.183594
1540.249678	1.077246	0.307551	9777.250000
1540.250560	0.138398	0.307551	9899.317383
1540.251597	0.089854	0.307551	9992.495117
1540.252491	0.090055	0.307551	10073.003906
1540.253413	0.089846	0.307551	10155.841797
1540.254278	0.089901	0.307551	10233.606445
1540.255279	0.089875	0.307551	10323.572266
1540.256200	0.089985	0.307551	10406.449219
1540.257076	0.089945	0.307551	10485.241211
1540.258062	0.089974	0.307551	10573.956055
1540.258968	0.089908	0.307551	10655.413086
1541.208419	1.102921	0.467749	509.549561
1541.209300	1.559322	0.467749	1883.312622
1541.210163	1.551753	0.467749	3222.475342
1541.211240	1.505431	0.467749	4843.824219
1541.212181	1.463258	0.467749	6220.750000
1541.213063	1.426143	0.467749	7478.607910
1541.214037	1.387207	0.467749	8829.748047
1541.215060	0.920262	0.467749	9771.176758
1541.215950	0.110229	0.467749	9869.281250
1541.216812	0.089872	0.467749	9946.750977
1541.217886	0.090026	0.467749	10043.438477
1541.218803	0.089982	0.467749	10125.952148
1541.219676	0.089912	0.467749	10204.445312
1541.220631	0.089989	0.467749	10290.384766
1541.221665	0.089890	0.467749	10383.331055
1541.222547	0.090000	0.467749	10462.710937
1541.223416	0.090026	0.467749	10540.943359
1541.224455	0.089996	0.467749	10634.449219
1542.270645	1.075496	0.292235	452.783661
1542.271707	1.565702	0.292235	2115.559082
1542.272608	1.545685	0.292235	3508.221191
1542.273492	1.506632	0.292235	4840.083984
1542.274489	1.462511	0.292235	6298.207520
1542.275425	1.422228	0.292235	7629.412598
1542.276358	1.385098	0.292235	8921.708984
1542.277236	1.014855	0.292235	9812.750977
1542.278271	0.106509	0.292235	9922.987305
1542.279149	0.089996	0.292235	10002.003906
1542.280020	0.089923	0.292235	10080.327148
1542.280994	0.090011	0.292235	10167.998047
1542.281940	0.089993	0.292235	10253.130859
1542.282866	0.089927	0.292235	10336.403320
1542.283745	0.089930	0.292235	10415.452148
1542.284757	0.089985	0.292235	10506.517578
1542.285657	0.090037	0.292235	10587.550781
1542.286536	0.089938	0.292235	10666.606445
1543.236651	1.108312	0.458524	595.163452
1543.237700	1.564925	0.458524	2236.770264
1543.238630	1.540342	0.458524	3669.288086
1543.239493	1.500366	0.458524	4964.104004
1543.240552	1.453667	0.458524	6503.537109
1543.241576	1.411062	0.458524	7948.464844
1543.242475	1.375514	0.458524	9185.051758
1543.243465	0.612426	0.458524	9791.353516
1543.244520	0.091095	0.458524	9887.458984
1543.245418	0.090000	0.458524	9968.279297
1543.246278	0.089996	0.458524	10045.675781
1543.247378	0.090150	0.458524	10144.840820
1543.248372	0.090048	0.458524	10234.347656
1543.249269	0.089963	0.458524	10315.044922
1543.250258	0.090088	0.458524	10404.141602
1543.251305	0.090011	0.458524	10498.382812
1543.252195	0.090000	0.458524	10578.482422
1543.253068	0.089952	0.458524	10657.010742
1544.298939	1.052966	0.284163	443.298828
1544.299888	1.556239	0.284163	1920.169678
1544.300951	1.543506	0.284163	3560.916504
1544.301875	1.502095	0.284163	4948.852051
1544.302749	1.461940	0.284163	6226.587402
1544.303827	1.417716	0.284163	7754.885254
1544.304826	1.377751	0.284163	9131.258789
1544.305720	0.785859	0.284163	9833.817383
1544.306581	0.100529	0.284163	9920.372070
1544.307684	0.090000	0.284163	10019.641602
1544.308609	0.089872	0.284163	10102.773437
1544.309488	0.089963	0.284163	10181.851562
1544.310464	0.090004	0.284163	10269.695312
1544.311468	0.089912	0.284163	10359.966797
1544.312352	0.089982	0.284163	10439.510742
1544.313213	0.090055	0.284163	10517.047852
1544.314285	0.089890	0.284163	10613.410156
1544.315197	0.089945	0.284163	10695.440430
1545.263606	1.115248	0.462448	528.627441
1545.264490	1.560568	0.462448	1908.169189
1545.265355	1.550856	0.462448	3249.659424
1545.266332	1.509089	0.462448	4724.039551
1545.267278	1.466679	0.462448	6111.517578
1545.268177	1.428398	0.462448	7395.647949
1545.269099	1.391865	0.462448	8678.947266
1545.270023	1.127018	0.462448	9720.311523
1545.270976	0.143361	0.462448	9856.934570
1545.271864	0.089872	0.462448	9936.741211
1545.272867	0.090011	0.462448	10027.022461
1545.273907	0.090007	0.462448	10120.629883
1545.274872	0.089989	0.462448	10207.469727
1545.275734	0.090018	0.462448	10285.065430
1545.276816	0.090092	0.462448	10382.544922
1545.277850	0.090040	0.462448	10475.646484
1545.278737	0.089897	0.462448	10555.385742
1545.279656	0.090022	0.462448	10638.116211
1546.326282	1.098951	0.278648	552.772583
1546.327344	1.565105	0.278648	2214.914062
1546.328285	1.540825	0.278648	3664.830566
1546.329152	1.500758	0.278648	4965.987793
1546.330232	1.453638	0.278648	6535.916504
1546.331250	1.411359	0.278648	7972.679687
1546.332138	1.375734	0.278648	9194.331055
1546.333136	0.622306	0.278648	9815.392578
1546.334178	0.091241	0.278648	9910.465820
1546.335093	0.089890	0.278648	9992.714844
1546.335952	0.089989	0.278648	10070.015625
1546.337044	0.090018	0.278648	10168.315430
1546.338042	0.089945	0.278648	10258.081055
1546.338915	0.089967	0.278648	10336.622070
1546.339913	0.090077	0.278648	10426.518555
1546.340973	0.089963	0.278648	10521.879883
1546.341868	0.090092	0.278648	10602.511719
1546.342732	0.089963	0.278648	10680.240234
1547.290587	1.078337	0.448534	484.173492
1547.291451	1.557576	0.448534	1829.918823
1547.292417	1.549552	0.448534	3326.786133
1547.293354	1.508254	0.448534	4740.020508
1547.294250	1.467799	0.448534	6055.168457
1547.295162	1.429915	0.448534	7359.250488
1547.296109	1.390748	0.448534	8676.289062
1547.297040	1.139249	0.448534	9736.929687
1547.297933	0.157108	0.448534	9877.227539
1547.298872	0.089791	0.448534	9961.541992
1547.299832	0.089864	0.448534	10047.811523
1547.300729	0.089949	0.448534	10128.495117
1547.301660	0.089952	0.448534	10212.241211
1547.302589	0.089868	0.448534	10295.728516
1547.303523	0.089960	0.448534	10379.750977
1547.304397	0.089952	0.448534	10458.369141
1547.305344	0.090000	0.448534	10543.599609
1547.306305	0.089949	0.448534	10630.040039
1548.354486	1.050249	0.277701	442.154816
1548.355401	1.557198	0.277701	1866.991333
1548.356376	1.549098	0.277701	3377.361816
1548.357305	1.508016	0.277701	4778.309082
1548.358174	1.468180	0.277701	6054.157227
1548.359155	1.428168	0.277701	7455.189453
1548.360081	1.389393	0.277701	8741.767578
1548.360987	1.115284	0.277701	9752.214844
1548.361874	0.151318	0.277701	9886.434570
1548.362857	0.089875	0.277701	9974.782227
1548.363783	0.089945	0.277701	10058.071289
1548.364657	0.090011	0.277701	10136.741211
1548.365630	0.090022	0.277701	10224.333008
1548.366583	0.089945	0.277701	10310.050781
1548.367479	0.089956	0.277701	10390.651367
1548.368358	0.089806	0.277701	10469.590820
1548.369315	0.089901	0.277701	10555.625977
1548.370265	0.089912	0.277701	10641.042969
1549.317385	1.098475	0.442173	553.631592
1549.318287	1.562373	0.442173	1962.892090
1549.319209	1.548047	0.442173	3390.191406
1549.320089	1.508972	0.442173	4718.086914
1549.321058	1.464781	0.442173	6137.459961
1549.322019	1.424795	0.442173	7506.687988
1549.322944	1.387599	0.442173	8790.216797
1549.323811	1.102434	0.442173	9746.027344
1549.324794	0.135579	0.442173	9879.300781
1549.325730	0.089810	0.442173	9963.362305
1549.326622	0.089930	0.442173	10043.580078
1549.327496	0.089912	0.442173	10122.163086
1549.328471	0.089930	0.442173	10209.845703
1549.329396	0.089938	0.442173	10293.038086
1549.330260	0.089996	0.442173	10370.794922
1549.331277	0.089982	0.442173	10462.306641
1549.332186	0.089916	0.442173	10544.040039
1549.333107	0.089956	0.442173	10626.889648
1550.382282	1.079425	0.273246	471.708771
1550.383152	1.557843	0.273246	1827.032227
1550.384148	1.549449	0.273246	3370.283691
1550.385066	1.508419	0.273246	4755.012695
1550.385973	1.467275	0.273246	6085.831543
1550.386852	1.429669	0.273246	7342.510742
1550.387832	1.390653	0.273246	8705.350586
1550.388767	1.128332	0.273246	9760.341797
1550.389660	0.149143	0.273246	9893.526367
1550.390554	0.089843	0.273246	9973.845703
1550.391494	0.089901	0.273246	10058.352539
1550.392435	0.089886	0.273246	10142.935547
1550.393324	0.089923	0.273246	10222.876953
1550.394253	0.089832	0.273246	10306.330078
1550.395202	0.089956	0.273246	10391.698242
1550.396127	0.089916	0.273246	10474.870117
1550.396985	0.090015	0.273246	10552.102539
1550.397916	0.090073	0.273246	10635.960937
1551.345467	1.070446	0.417645	454.939362
1551.346562	1.563680	0.417645	2167.169434
1551.347550	1.539748	0.417645	3688.440918
1551.348445	1.499718	0.417645	5030.688477
1551.349444	1.455817	0.417645	6485.049316
1551.350500	1.412311	0.417645	7976.449707
1551.351395	1.375917	0.417645	9207.895508
1551.352288	0.714818	0.417645	9846.228516
1551.353373	0.092021	0.417645	9946.072266
1551.354333	0.089989	0.417645	10032.461914
1551.355198	0.090018	0.417645	10110.328125
1551.356221	0.089982	0.417645	10202.378906
1551.357252	0.089758	0.417645	10294.919922
1551.358143	0.089941	0.417645	10375.057617
1551.359007	0.089923	0.417645	10452.750977
1551.360064	0.089989	0.417645	10547.869141
1551.361014	0.089861	0.417645	10633.237305
1551.361889	0.089974	0.417645	10711.964844
1552.406665	1.124293	0.286894	563.270874
1552.407609	1.564687	0.286894	2040.335815
1552.408476	1.548516	0.286894	3382.898926
1552.409537	1.501619	0.286894	4976.116211
1552.410552	1.456534	0.286894	6454.498535
1552.411445	1.419031	0.286894	7721.692871
1552.412400	1.381102	0.286894	9040.645508
1552.413455	0.674956	0.286894	9752.724609
1552.414375	0.093853	0.286894	9839.069336
1552.415250	0.089949	0.286894	9917.774414
1552.416228	0.090007	0.286894	10005.801758
1552.417246	0.089923	0.286894	10097.343750
1552.418137	0.089967	0.286894	10177.503906
1552.418997	0.089949	0.286894	10254.859375
1552.420030	0.089963	0.286894	10347.791992
1552.420966	0.090059	0.286894	10432.086914
1552.421846	0.089978	0.286894	10511.267578
1552.422795	0.090015	0.286894	10596.691406
1553.376209	1.094711	0.404710	483.862122
1553.377135	1.560743	0.404710	1929.110596
1553.378000	1.550691	0.404710	3270.458252
1553.378980	1.508796	0.404710	4749.078613
1553.379938	1.465796	0.404710	6153.311035
1553.380823	1.428043	0.404710	7417.129395
1553.381730	1.391239	0.404710	8678.983398
1553.382684	1.118317	0.404710	9745.857422
1553.383622	0.141892	0.404710	9878.952148
1553.384499	0.089861	0.404710	9957.759766
1553.385438	0.089967	0.404710	10042.239258
1553.386391	0.090015	0.404710	10128.023437
1553.387315	0.089982	0.404710	10211.166992
1553.388177	0.089971	0.404710	10288.721680
1553.389268	0.090070	0.404710	10386.987305
1553.390300	0.089905	0.404710	10479.769531
1553.391189	0.089985	0.404710	10559.766602
1553.392070	0.089971	0.404710	10639.031250
1554.428894	1.090371	0.299152	490.666962
1554.429777	1.559322	0.299152	1867.548706
1554.430660	1.552456	0.299152	3238.367432
1554.431563	1.513264	0.299152	4604.844727
1554.432510	1.469311	0.299152	5996.282715
1554.433463	1.429453	0.299152	7358.551758
1554.434356	1.393165	0.299152	8602.648437
1554.435382	1.071394	0.299152	9701.898437
1554.436432	0.118275	0.299152	9826.086914
1554.437381	0.089854	0.299152	9911.357422
1554.438242	0.089982	0.299152	9988.832031
1554.439282	0.089919	0.299152	10082.348633
1554.440298	0.090055	0.299152	10173.844727
1554.441181	0.089982	0.299152	10253.298828
1554.442125	0.089949	0.299152	10338.209961
1554.443183	0.089908	0.299152	10433.333008
1554.444123	0.090011	0.299152	10517.943359
1554.444981	0.089930	0.299152	10595.103516
1555.410746	1.061470	0.385813	446.878784
1555.411739	1.559894	0.385813	1995.853271
1555.412669	1.547256	0.385813	3434.801270
1555.413544	1.508166	0.385813	4754.446777
1555.414465	1.466679	0.385813	6105.257812
1555.415430	1.426322	0.385813	7481.658691
1555.416359	1.388518	0.385813	8771.591797
1555.417240	1.144479	0.385813	9779.877930
1555.418183	0.136879	0.385813	9908.954102
1555.419132	0.089843	0.385813	9994.214844
1555.420070	0.090015	0.385813	10078.648437
1555.420935	0.089974	0.385813	10156.476562
1555.421918	0.090022	0.385813	10244.967773
1555.422846	0.089945	0.385813	10328.436523
1555.423705	0.089934	0.385813	10405.689453
1555.424656	0.090011	0.385813	10491.290039
1555.425584	0.089890	0.385813	10574.708008
1555.426505	0.089908	0.385813	10657.513672
1556.447997	1.103551	0.309980	528.600952
1556.448924	1.562040	0.309980	1976.611816
1556.449799	1.549486	0.309980	3332.412109
1556.450719	1.509075	0.309980	4720.760742
1556.451687	1.465697	0.309980	6139.555664
1556.452621	1.426121	0.309980	7471.552246
1556.453500	1.390342	0.309980	8693.662109
1556.454425	1.103386	0.309980	9714.294922
1556.455390	0.132400	0.309980	9842.060547
1556.456317	0.089758	0.309980	9925.266602
1556.457181	0.089868	0.309980	10002.913086
1556.458155	0.089755	0.309980	10090.333984
1556.459097	0.089861	0.309980	10174.982422
1556.459985	0.089982	0.309980	10254.885742
1556.460898	0.089989	0.309980	10337.045898
1556.461819	0.090015	0.309980	10419.949219
1556.462771	0.090015	0.309980	10505.643555
1556.463660	0.089945	0.309980	10585.604492
1557.448262	1.070358	0.362074	466.675934
1557.449139	1.557686	0.362074	1832.766235
1557.450102	1.550347	0.362074	3325.750000
1557.451042	1.508789	0.362074	4744.011719
1557.451970	1.467067	0.362074	6105.449707
1557.452836	1.430094	0.362074	7343.911133
1557.453798	1.391580	0.362074	8682.610352
1557.454717	1.119639	0.362074	9711.558594
1557.455650	0.149641	0.362074	9851.173828
1557.456523	0.089769	0.362074	9929.541992
1557.457489	0.089850	0.362074	10016.336914
1557.458439	0.090088	0.362074	10101.919922
1557.459333	0.089941	0.362074	10182.327148
1557.460246	0.089952	0.362074	10264.454102
1557.461203	0.089930	0.362074	10350.517578
1557.462122	0.089850	0.362074	10433.089844
1557.463000	0.090033	0.362074	10512.138672
1557.463938	0.089821	0.362074	10596.390625
1558.463936	1.060627	0.354199	456.069794
1558.464804	1.556755	0.354199	1807.333496
1558.465683	1.553895	0.354199	3173.207520
1558.466661	1.511243	0.354199	4651.203125
1558.467592	1.469007	0.354199	6018.849121
1558.468484	1.431475	0.354199	7295.724609
1558.469445	1.393000	0.354199	8634.398437
1558.470396	1.157022	0.354199	9734.725586
1558.471329	0.150055	0.354199	9874.726562
1558.472212	0.089894	0.354199	9954.102539
1558.473151	0.089978	0.354199	10038.591797
1558.474089	0.089934	0.354199	10122.950195
1558.475004	0.089908	0.354199	10205.216797
1558.475878	0.089963	0.354199	10283.844727
1558.476790	0.089956	0.354199	10365.884766
1558.477744	0.090000	0.354199	10451.745117
1558.478635	0.090015	0.354199	10531.948242
1558.479610	0.089996	0.354199	10619.694336
1559.488694	1.053951	0.315894	442.659576
1559.489733	1.562710	0.315894	2066.315186
1559.490647	1.546183	0.315894	3479.526367
1559.491530	1.506844	0.315894	4810.069824
1559.492462	1.464943	0.315894	6175.396484
1559.493456	1.423326	0.315894	7590.182617
1559.494372	1.385764	0.315894	8859.542969
1559.495252	1.074551	0.315894	9805.147461
1559.496272	0.127881	0.315894	9935.585937
1559.497182	0.089872	0.315894	10017.369141
1559.498101	0.089930	0.315894	10100.015625
1559.498971	0.089967	0.315894	10178.287109
1559.499915	0.089839	0.315894	10263.094727
1559.500857	0.089927	0.315894	10347.805664
1559.501783	0.089985	0.315894	10431.131836
1559.502661	0.089960	0.315894	10510.116211
1559.503641	0.089978	0.315894	10598.294922
1559.504573	0.090051	0.315894	10682.222656
1560.484193	1.111282	0.377261	511.189606
1560.485085	1.559839	0.377261	1902.565796
1560.486099	1.546978	0.377261	3471.201172
1560.487016	1.504988	0.377261	4851.274902
1560.487941	1.464104	0.377261	6205.571289
1560.488802	1.426428	0.377261	7433.726074
1560.489847	1.385603	0.377261	8881.681641
1560.490728	1.036036	0.377261	9794.429687
1560.491608	0.130679	0.377261	9909.426758
1560.492586	0.089960	0.377261	9997.407227
1560.493525	0.090055	0.377261	10081.968750
1560.494452	0.089872	0.377261	10165.280273
1560.495319	0.090062	0.377261	10243.364258
1560.496375	0.089952	0.377261	10338.353516
1560.497265	0.089861	0.377261	10418.330078
1560.498143	0.090000	0.377261	10497.349609
1560.499074	0.089967	0.377261	10581.109375
1560.500065	0.089941	0.377261	10670.241211
1561.522836	1.133672	0.282813	569.103271
1561.523737	1.562941	0.282813	1977.312744
1561.524620	1.549149	0.282813	3345.211426
1561.525530	1.508412	0.282813	4717.866211
1561.526536	1.462969	0.282813	6189.612793
1561.527470	1.424436	0.282813	7520.036133
1561.528353	1.388859	0.282813	8746.398437
1561.529389	0.965021	0.282813	9746.160156
1561.530290	0.114998	0.282813	9849.773437
1561.531218	0.089813	0.282813	9933.120117
1561.532078	0.089934	0.282813	10010.463867
1561.533108	0.089956	0.282813	10103.118164
1561.533984	0.089952	0.282813	10181.916016
1561.534904	0.090018	0.282813	10264.732422
1561.535783	0.089919	0.282813	10343.771484
1561.536772	0.089912	0.282813	10432.694336
1561.537697	0.090011	0.282813	10515.954102
1561.538576	0.090026	0.282813	10595.086914
1562.508864	1.180016	0.395123	650.188782
1562.509826	1.565676	0.395123	2156.369385
1562.510699	1.545165	0.395123	3505.298340
1562.511573	1.503981	0.395123	4819.777344
1562.512691	1.456699	0.395123	6448.367187
1562.513601	1.418339	0.395123	7739.055176
1562.514473	1.383149	0.395123	8945.161133
1562.515507	0.783940	0.395123	9755.755859
1562.516475	0.095317	0.395123	9848.023437
1562.517395	0.089810	0.395123	9930.648437
1562.518270	0.089919	0.395123	10009.328125
1562.519343	0.089989	0.395123	10105.886719
1562.520241	0.089949	0.395123	10186.661133
1562.521121	0.089967	0.395123	10265.832031
1562.521978	0.089938	0.395123	10342.908203
1562.523032	0.090026	0.395123	10437.794922
1562.523914	0.089941	0.395123	10517.123047
1562.524783	0.089897	0.395123	10595.244141
1563.547829	1.053523	0.280614	442.479645
1563.548872	1.562497	0.280614	2072.164551
1563.549825	1.544008	0.280614	3543.604004
1563.550708	1.504640	0.280614	4872.201172
1563.551647	1.462540	0.280614	6245.526367
1563.552708	1.418511	0.280614	7750.566406
1563.553610	1.382073	0.280614	8997.196289
1563.554481	0.959121	0.280614	9832.590820
1563.555537	0.101653	0.280614	9939.936523
1563.556499	0.089817	0.280614	10026.340820
1563.557380	0.089956	0.280614	10105.591797
1563.558304	0.089934	0.280614	10188.690430
1563.559353	0.089832	0.280614	10282.923828
1563.560230	0.089941	0.280614	10361.802734
1563.561090	0.089978	0.280614	10439.183594
1563.562122	0.089971	0.280614	10532.033203
1563.563072	0.089945	0.280614	10617.481445
1563.563948	0.089843	0.280614	10696.183594
1564.540732	1.065637	0.351045	452.895813
1564.541812	1.562648	0.351045	2140.555420
1564.542825	1.539972	0.351045	3700.546875
1564.543704	1.499949	0.351045	5019.001953
1564.544700	1.455978	0.351045	6469.155762
1564.545756	1.412194	0.351045	7960.432129
1564.546665	1.375565	0.351045	9210.821289
1564.547540	0.711639	0.351045	9833.505859
1564.548640	0.092018	0.351045	9934.725586
1564.549616	0.089934	0.351045	10022.500977
1564.550485	0.089952	0.351045	10100.669922
1564.551516	0.089985	0.351045	10193.444336
1564.552551	0.090070	0.351045	10286.666016
1564.553440	0.089941	0.351045	10366.624023
1564.554349	0.089897	0.351045	10448.340820
1564.555423	0.089919	0.351045	10544.914062
1564.556377	0.089960	0.351045	10630.735352
1564.557243	0.089996	0.351045	10708.671875
1565.565850	1.141952	0.299027	591.531067
1565.566737	1.562520	0.299027	1977.485840
1565.567674	1.546688	0.299027	3426.732666
1565.568785	1.497898	0.299027	5090.897461
1565.569711	1.456351	0.299027	6439.478516
1565.570582	1.419305	0.299027	7675.693359
1565.571643	1.377184	0.299027	9136.885742
1565.572668	0.589274	0.299027	9740.891602
1565.573563	0.092823	0.299027	9823.968750
1565.574534	0.089938	0.299027	9911.297852
1565.575582	0.089952	0.299027	10005.568359
1565.576499	0.090033	0.299027	10088.128906
1565.577363	0.089996	0.299027	10165.885742
1565.578461	0.089960	0.299027	10264.661133
1565.579446	0.089945	0.299027	10353.256836
1565.580340	0.089960	0.299027	10433.680664
1565.581325	0.089982	0.299027	10522.312500
1565.582386	0.089974	0.299027	10617.775391
1566.578449	1.136880	0.320405	569.576843
1566.579410	1.564515	0.320405	2073.076172
1566.580283	1.547282	0.320405	3423.853027
1566.581358	1.499311	0.320405	5035.612793
1566.582395	1.453535	0.320405	6542.928711
1566.583294	1.415903	0.320405	7815.825684
1566.584223	1.378832	0.320405	9096.760742
1566.585287	0.604750	0.320405	9740.214844
1566.586236	0.091842	0.320405	9827.373047
1566.587097	0.089832	0.320405	9904.717773
1566.588145	0.089927	0.320405	9998.960937
1566.589173	0.089894	0.320405	10091.372070
1566.590056	0.089919	0.320405	10170.770508
1566.591028	0.089938	0.320405	10258.190430
1566.592060	0.089850	0.320405	10350.915039
1566.592985	0.089861	0.320405	10434.036133
1566.593845	0.089857	0.320405	10511.313477
1566.594925	0.089941	0.320405	10608.450195
1567.579579	1.060294	0.343637	449.564728
1567.580554	1.559857	0.343637	1970.425415
1567.581485	1.547465	0.343637	3411.114990
1567.582380	1.507731	0.343637	4760.534180
1567.583275	1.467488	0.343637	6073.935547
1567.584214	1.427084	0.343637	7413.967285
1567.585162	1.389210	0.343637	8730.938477
1567.586062	1.152253	0.343637	9767.966797
1567.586995	0.153230	0.343637	9910.930664
1567.587949	0.089868	0.343637	9996.665039
1567.588871	0.089927	0.343637	10079.577148
1567.589736	0.089864	0.343637	10157.309570
1567.590670	0.089879	0.343637	10241.256836
1567.591598	0.089945	0.343637	10324.725586
1567.592517	0.089916	0.343637	10407.358398
1567.593389	0.089894	0.343637	10485.746094
1567.594479	0.089941	0.343637	10583.782227
1567.595540	0.089890	0.343637	10679.155273
1568.616965	1.133822	0.315209	565.777161
1568.617892	1.562758	0.315209	2014.453369
1568.618824	1.546816	0.315209	3456.086182
1568.619688	1.507211	0.315209	4758.316406
1568.620638	1.465005	0.315209	6150.071289
1568.621598	1.425088	0.315209	7518.155762
1568.622495	1.388511	0.315209	8763.650391
1568.623418	1.098819	0.315209	9777.860352
1568.624365	0.128452	0.315209	9899.504883
1568.625307	0.089806	0.315209	9984.101562
1568.626204	0.090055	0.315209	10064.880859
1568.627143	0.089908	0.315209	10149.304687
1568.628090	0.090018	0.315209	10234.551758
1568.629015	0.090026	0.315209	10317.825195
1568.629878	0.089978	0.315209	10395.476562
1568.630911	0.090051	0.315209	10488.500000
1568.631956	0.090114	0.315209	10582.668945
1568.632855	0.090099	0.315209	10663.667969
1569.597655	1.075796	0.372508	475.501770
1569.598535	1.557916	0.372508	1846.468018
1569.599473	1.550903	0.372508	3301.215332
1569.600405	1.509126	0.372508	4707.720703
1569.601340	1.467107	0.372508	6079.465820
1569.602221	1.429808	0.372508	7339.126953
1569.603160	1.391334	0.372508	8645.589844
1569.604114	1.111879	0.372508	9706.322266
1569.605053	0.141716	0.372508	9839.393555
1569.605915	0.089850	0.372508	9916.843750
1569.606888	0.089952	0.372508	10004.367187
1569.607836	0.089938	0.372508	10089.627930
1569.608727	0.090070	0.372508	10169.879883
1569.609649	0.089956	0.372508	10252.819336
1569.610590	0.089941	0.372508	10337.454102
1569.611481	0.090026	0.372508	10417.666992
1569.612360	0.089982	0.372508	10496.760742
1569.613329	0.089890	0.372508	10583.864258
1570.653421	1.098113	0.283482	520.505432
1570.654353	1.562344	0.283482	1976.609863
1570.655240	1.549226	0.283482	3350.773437
1570.656149	1.509335	0.283482	4722.758789
1570.657107	1.466422	0.283482	6127.591309
1570.658040	1.426978	0.283482	7458.961426
1570.658905	1.391415	0.283482	8662.535156
1570.659850	1.123971	0.283482	9724.687500
1570.660784	0.144716	0.283482	9859.851562
1570.661717	0.089886	0.283482	9943.715820
1570.662596	0.089949	0.283482	10022.781250
1570.663555	0.089894	0.283482	10108.989258
1570.664505	0.089952	0.283482	10194.444336
1570.665403	0.089905	0.283482	10275.178711
1570.666286	0.089930	0.283482	10354.586914
1570.667233	0.090073	0.283482	10439.886719
1570.668170	0.089912	0.283482	10524.134766
1570.669057	0.089949	0.283482	10603.918945
1571.618822	1.145076	0.399957	564.522339
1571.619751	1.562366	0.399957	2015.960083
1571.620684	1.546564	0.399957	3458.903809
1571.621552	1.507211	0.399957	4767.162598
1571.622534	1.464306	0.399957	6205.110352
1571.623490	1.424436	0.399957	7566.871094
1571.624362	1.387936	0.399957	8777.151367
1571.625248	1.085087	0.399957	9738.538086
1571.626212	0.132997	0.399957	9866.747070
1571.627165	0.089714	0.399957	9952.245117
1571.628061	0.089864	0.399957	10032.763672
1571.628979	0.089839	0.399957	10115.235352
1571.629941	0.089872	0.399957	10201.692383
1571.630869	0.090073	0.399957	10285.280273
1571.631734	0.089905	0.399957	10363.047852
1571.632711	0.089883	0.399957	10450.863281
1571.633648	0.090026	0.399957	10535.217773
1571.634562	0.090077	0.399957	10617.547852
1572.684162	1.144530	0.252693	537.929138
1572.685032	1.560707	0.252693	1895.743896
1572.685969	1.548746	0.252693	3346.918945
1572.686933	1.506464	0.252693	4799.149902
1572.687827	1.466041	0.252693	6109.791016
1572.688743	1.428043	0.252693	7417.878906
1572.689683	1.389463	0.252693	8723.973633
1572.690613	1.115200	0.252693	9761.109375
1572.691511	0.149213	0.252693	9895.102539
1572.692444	0.089773	0.252693	9978.860352
1572.693405	0.089927	0.252693	10065.280273
1572.694320	0.089916	0.252693	10147.552734
1572.695179	0.089938	0.252693	10224.809570
1572.696132	0.090062	0.252693	10310.638672
1572.697072	0.089956	0.252693	10395.197266
1572.697985	0.089868	0.252693	10477.247070
1572.698847	0.089908	0.252693	10554.748047
1572.699812	0.089868	0.252693	10641.470703
